# 1=wavelength (angstroms), 2=relative flux
   1.1000000E+03   0.0000000E+00
   1.1040000E+03   0.0000000E+00
   1.1080000E+03   0.0000000E+00
   1.1120000E+03   0.0000000E+00
   1.1160000E+03   0.0000000E+00
   1.1200000E+03   0.0000000E+00
   1.1240000E+03   0.0000000E+00
   1.1280000E+03   0.0000000E+00
   1.1320000E+03   0.0000000E+00
   1.1360000E+03   0.0000000E+00
   1.1400000E+03   0.0000000E+00
   1.1440000E+03   0.0000000E+00
   1.1480000E+03   0.0000000E+00
   1.1520000E+03   0.0000000E+00
   1.1560000E+03   0.0000000E+00
   1.1600000E+03   0.0000000E+00
   1.1640000E+03   0.0000000E+00
   1.1680000E+03   0.0000000E+00
   1.1720000E+03   0.0000000E+00
   1.1760000E+03   0.0000000E+00
   1.1800000E+03   0.0000000E+00
   1.1840000E+03   0.0000000E+00
   1.1880000E+03   0.0000000E+00
   1.1920000E+03   0.0000000E+00
   1.1960000E+03   0.0000000E+00
   1.2000000E+03   0.0000000E+00
   1.2040000E+03   0.0000000E+00
   1.2080000E+03   0.0000000E+00
   1.2120000E+03   0.0000000E+00
   1.2160000E+03   0.0000000E+00
   1.2200000E+03   0.0000000E+00
   1.2240000E+03   0.0000000E+00
   1.2280000E+03   0.0000000E+00
   1.2320000E+03   3.7949998E-15
   1.2360000E+03   3.5840001E-15
   1.2400000E+03   5.2170000E-15
   1.2440000E+03   3.8570001E-15
   1.2480000E+03   3.9060001E-15
   1.2520000E+03   4.1709999E-15
   1.2560000E+03   4.1099999E-15
   1.2600000E+03   2.7459999E-15
   1.2640000E+03   3.5800000E-15
   1.2680000E+03   4.4360001E-15
   1.2720000E+03   3.2440000E-15
   1.2760000E+03   3.7050000E-15
   1.2800000E+03   5.4589999E-15
   1.2840000E+03   5.3860000E-15
   1.2880000E+03   5.2270001E-15
   1.2920000E+03   3.8150000E-15
   1.2960000E+03   2.0680000E-15
   1.3000000E+03   3.0480000E-15
   1.3040000E+03   3.5099999E-15
   1.3080000E+03   3.8830002E-15
   1.3120000E+03   3.2729999E-15
   1.3160000E+03   3.8420000E-15
   1.3200000E+03   4.1730001E-15
   1.3240000E+03   3.6720001E-15
   1.3280000E+03   4.2400000E-15
   1.3320000E+03   4.6980001E-15
   1.3360000E+03   3.1089999E-15
   1.3400000E+03   4.7400002E-15
   1.3440000E+03   4.8799999E-15
   1.3480000E+03   4.2490002E-15
   1.3520000E+03   5.0669998E-15
   1.3560000E+03   3.6600001E-15
   1.3600000E+03   3.9170001E-15
   1.3640000E+03   4.2720001E-15
   1.3680000E+03   3.4440000E-15
   1.3720000E+03   4.9760001E-15
   1.3760000E+03   3.7760000E-15
   1.3800000E+03   3.3740001E-15
   1.3840000E+03   3.6579999E-15
   1.3880000E+03   3.3440001E-15
   1.3920000E+03   2.6600000E-15
   1.3960000E+03   2.1620000E-17
   1.4000000E+03   3.0079999E-15
   1.4040000E+03   4.5809998E-15
   1.4080000E+03   2.4970000E-15
   1.4120000E+03   3.0409999E-15
   1.4160000E+03   3.6419998E-15
   1.4200000E+03   4.0980000E-15
   1.4240000E+03   3.3070000E-15
   1.4280000E+03   4.0880000E-15
   1.4320000E+03   3.9500001E-15
   1.4360000E+03   3.6529998E-15
   1.4400000E+03   4.5699998E-15
   1.4440000E+03   4.0019999E-15
   1.4480000E+03   3.7580002E-15
   1.4520000E+03   3.3569999E-15
   1.4560000E+03   2.4319999E-15
   1.4600000E+03   2.7390000E-15
   1.4640000E+03   4.8539998E-15
   1.4680000E+03   3.8090000E-15
   1.4720000E+03   3.7440000E-15
   1.4760000E+03   4.9019999E-15
   1.4800000E+03   4.1140001E-15
   1.4840000E+03   5.4159998E-15
   1.4880000E+03   5.5129999E-15
   1.4920000E+03   4.3459998E-15
   1.4960000E+03   6.0790000E-15
   1.5000000E+03   3.2540001E-15
   1.5040000E+03   3.4900000E-15
   1.5080000E+03   2.6660000E-15
   1.5120000E+03   6.1529998E-15
   1.5160000E+03   5.5610000E-15
   1.5200000E+03   5.2459999E-15
   1.5240000E+03   3.5929998E-15
   1.5280000E+03   2.4970000E-17
   1.5320000E+03   4.7090000E-15
   1.5360000E+03   6.6020001E-15
   1.5400000E+03   3.2280000E-15
   1.5440000E+03   2.6210001E-15
   1.5480000E+03   3.2259999E-15
   1.5520000E+03   3.2619999E-15
   1.5560000E+03   3.6959999E-15
   1.5600000E+03   3.4870000E-15
   1.5640000E+03   4.0189998E-15
   1.5680000E+03   4.0600000E-15
   1.5720000E+03   2.9380001E-15
   1.5760000E+03   4.4700000E-15
   1.5800000E+03   5.3020002E-15
   1.5840000E+03   4.3310002E-15
   1.5880000E+03   3.8599999E-15
   1.5920000E+03   3.0960001E-15
   1.5960000E+03   2.9410000E-15
   1.6000000E+03   3.4890001E-15
   1.6040000E+03   5.0460002E-15
   1.6080000E+03   3.3920000E-15
   1.6120000E+03   2.5900000E-15
   1.6160000E+03   4.3129999E-15
   1.6200000E+03   3.5570001E-15
   1.6240000E+03   3.3459999E-15
   1.6280000E+03   3.1389999E-15
   1.6320000E+03   3.8169998E-15
   1.6360000E+03   2.8400000E-15
   1.6400000E+03   3.3640000E-15
   1.6440000E+03   4.3210001E-15
   1.6480000E+03   3.5979999E-15
   1.6520000E+03   5.0140001E-15
   1.6560000E+03   2.8270000E-15
   1.6600000E+03   4.8429998E-15
   1.6640000E+03   3.1070001E-15
   1.6680000E+03   3.6160002E-15
   1.6720000E+03   3.5300001E-15
   1.6760000E+03   4.1960001E-15
   1.6800000E+03   3.9220001E-15
   1.6840000E+03   3.2120000E-15
   1.6880000E+03   2.2270000E-15
   1.6920000E+03   2.6749999E-15
   1.6960000E+03   4.1450002E-15
   1.7000000E+03   4.0669999E-15
   1.7040000E+03   3.6440001E-15
   1.7080000E+03   3.0690001E-15
   1.7120000E+03   3.5179999E-15
   1.7160000E+03   3.1540000E-15
   1.7200000E+03   3.9259998E-15
   1.7240000E+03   2.5010001E-15
   1.7280000E+03   4.3189998E-15
   1.7320000E+03   5.2500000E-15
   1.7360000E+03   4.4210000E-15
   1.7400000E+03   4.1960001E-15
   1.7440000E+03   5.3690001E-15
   1.7480000E+03   4.1659998E-15
   1.7520000E+03   2.8300000E-15
   1.7560000E+03   3.7930000E-15
   1.7600000E+03   4.0829999E-15
   1.7640000E+03   5.2629998E-15
   1.7680000E+03   4.7480000E-15
   1.7720000E+03   4.7059999E-15
   1.7760000E+03   3.9139999E-15
   1.7800000E+03   4.3650001E-15
   1.7840000E+03   3.4119999E-15
   1.7880000E+03   3.1680000E-15
   1.7920000E+03   3.3650000E-15
   1.7960000E+03   3.7210001E-15
   1.8000000E+03   3.5300001E-15
   1.8040000E+03   3.0700000E-15
   1.8080000E+03   3.5910000E-15
   1.8120000E+03   4.0690002E-15
   1.8160000E+03   5.3779998E-15
   1.8200000E+03   4.7350001E-15
   1.8240000E+03   3.4879999E-15
   1.8280000E+03   3.7679998E-15
   1.8320000E+03   3.8240001E-15
   1.8360000E+03   3.3240000E-15
   1.8400000E+03   3.7140002E-15
   1.8440000E+03   3.9469999E-15
   1.8480000E+03   2.3749999E-15
   1.8520000E+03   2.4750000E-15
   1.8560000E+03   2.6080000E-15
   1.8600000E+03   3.1769999E-15
   1.8640000E+03   2.3360000E-15
   1.8680000E+03   3.5160001E-15
   1.8720000E+03   3.2080001E-15
   1.8760000E+03   3.1689999E-15
   1.8800000E+03   3.5659998E-15
   1.8840000E+03   2.8329999E-15
   1.8880000E+03   3.1300000E-15
   1.8920000E+03   3.7630002E-15
   1.8960000E+03   5.0200001E-15
   1.9000000E+03   4.0430001E-15
   1.9040000E+03   3.1190000E-15
   1.9080000E+03   3.5670002E-15
   1.9120000E+03   3.4790000E-15
   1.9160000E+03   2.8870000E-15
   1.9200000E+03   2.2400000E-15
   1.9240000E+03   2.4280000E-15
   1.9280000E+03   2.1230000E-15
   1.9320000E+03   2.7040000E-15
   1.9360000E+03   8.8240001E-16
   1.9400000E+03   2.4159999E-15
   1.9440000E+03   2.9820000E-15
   1.9480000E+03   3.0379999E-15
   1.9520000E+03   3.8530000E-15
   1.9560000E+03   4.1879998E-15
   1.9600000E+03   3.5809999E-15
   1.9640000E+03   2.5970001E-15
   1.9680000E+03   3.2870001E-15
   1.9720000E+03   2.6790000E-15
   1.9760000E+03   2.8419999E-16
   1.9800000E+03   2.3900000E-15
   1.9840000E+03   3.8759999E-15
   1.9880000E+03   2.8799999E-15
   1.9920000E+03   3.5470000E-15
   1.9960000E+03   1.3340000E-15
   2.0000000E+03   2.2959999E-15
   2.0040000E+03   2.5650000E-15
   2.0080000E+03   1.2560000E-16
   2.0120000E+03   3.2330001E-16
   2.0160000E+03   1.5060000E-15
   2.0200000E+03   3.6249999E-15
   2.0240000E+03   2.6179999E-15
   2.0280000E+03   2.4140001E-15
   2.0320000E+03   2.1869999E-15
   2.0360000E+03   3.3120000E-15
   2.0400000E+03   2.1710001E-15
   2.0440000E+03   2.4600001E-15
   2.0480000E+03   3.8480000E-15
   2.0520000E+03   1.4710000E-15
   2.0560000E+03   1.8649999E-15
   2.0600000E+03   2.5169999E-15
   2.0640000E+03   2.5430000E-15
   2.0680000E+03   1.8800000E-15
   2.0720000E+03   3.6519999E-15
   2.0760000E+03   3.1540000E-15
   2.0800000E+03   2.1820001E-15
   2.0840000E+03   8.3910001E-16
   2.0880000E+03   2.5530001E-15
   2.0920000E+03   2.3380000E-15
   2.0960000E+03   4.1680001E-15
   2.1000000E+03   3.7380000E-15
   2.1040000E+03   2.3240001E-15
   2.1080000E+03   3.0079999E-15
   2.1120000E+03   2.7110001E-15
   2.1160000E+03   1.7780001E-15
   2.1200000E+03   1.8360000E-15
   2.1240000E+03   3.9130000E-15
   2.1280000E+03   1.8060000E-15
   2.1320000E+03   2.7360001E-15
   2.1360000E+03   2.8450001E-15
   2.1400000E+03   3.0530000E-15
   2.1440000E+03   2.4379999E-15
   2.1480000E+03   4.5969998E-15
   2.1520000E+03   2.6419999E-15
   2.1560000E+03   2.5390001E-15
   2.1600000E+03   5.9730000E-16
   2.1640000E+03   2.8100000E-15
   2.1680000E+03   1.8660000E-15
   2.1720000E+03   5.0379999E-15
   2.1760000E+03   1.9540000E-15
   2.1800000E+03   1.0370000E-15
   2.1840000E+03   2.3110000E-15
   2.1880000E+03   2.9369999E-15
   2.1920000E+03   3.2259999E-15
   2.1960000E+03   5.0869999E-15
   2.2000000E+03   2.2480000E-15
   2.2040000E+03   2.5920000E-15
   2.2080000E+03   2.9390000E-16
   2.2120000E+03   2.4930001E-15
   2.2160000E+03   3.6529998E-15
   2.2200000E+03   3.0140001E-15
   2.2240000E+03   1.2750000E-15
   2.2280000E+03   3.9209998E-15
   2.2320000E+03   6.8590002E-16
   2.2360000E+03   2.9069999E-15
   2.2400000E+03   2.5450001E-15
   2.2440000E+03   5.3489999E-15
   2.2480000E+03   2.4569999E-15
   2.2520000E+03   3.2090000E-15
   2.2560000E+03   4.6170000E-15
   2.2600000E+03   2.5579999E-15
   2.2640000E+03   1.5709999E-15
   2.2680000E+03   1.5880000E-15
   2.2720000E+03   2.8320000E-15
   2.2760000E+03   2.4869999E-15
   2.2800000E+03   2.2519999E-15
   2.2840000E+03   1.9870000E-15
   2.2880000E+03   2.3400001E-15
   2.2920000E+03   2.9280000E-15
   2.2960000E+03   2.4170000E-15
   2.3000000E+03   3.0120000E-15
   2.3040000E+03   1.3270000E-15
   2.3080000E+03   2.8820000E-15
   2.3120000E+03   1.9599999E-15
   2.3160000E+03   1.9549999E-15
   2.3200000E+03   2.6170000E-15
   2.3240000E+03   4.4770001E-16
   2.3280000E+03   2.7400000E-15
   2.3320000E+03   4.2969998E-15
   2.3360000E+03   2.1850000E-15
   2.3400000E+03   7.0149998E-16
   2.3440000E+03   6.6460000E-16
   2.3480000E+03   4.7840003E-16
   2.3520000E+03   1.1990000E-15
   2.3560000E+03   2.4450000E-15
   2.3600000E+03   2.2260000E-15
   2.3640000E+03   2.0480001E-15
   2.3680000E+03   2.2190000E-15
   2.3720000E+03   3.5950001E-15
   2.3760000E+03   2.1970000E-15
   2.3800000E+03   2.0820000E-15
   2.3840000E+03   3.3990001E-15
   2.3880000E+03   2.1729999E-15
   2.3920000E+03   2.9900000E-15
   2.3960000E+03   3.1900000E-15
   2.4000000E+03   3.3120000E-15
   2.4040000E+03   3.7930000E-15
   2.4080000E+03   2.2810000E-15
   2.4120000E+03   1.0460000E-15
   2.4160000E+03   3.5979999E-15
   2.4200000E+03   2.6000000E-15
   2.4240000E+03   2.9530000E-15
   2.4280000E+03   2.8769999E-15
   2.4320000E+03   2.7379999E-15
   2.4360000E+03   2.7810000E-15
   2.4400000E+03   2.1140001E-15
   2.4440000E+03   3.1350000E-15
   2.4480000E+03   3.4670001E-15
   2.4520000E+03   3.4270000E-15
   2.4560000E+03   4.4539999E-15
   2.4600000E+03   5.4579999E-15
   2.4640000E+03   3.7360002E-15
   2.4680000E+03   1.9920000E-15
   2.4720000E+03   2.7930001E-15
   2.4760000E+03   4.1290002E-15
   2.4800000E+03   4.1180002E-15
   2.4840000E+03   2.5200001E-15
   2.4880000E+03   3.2319999E-15
   2.4920000E+03   3.7700001E-15
   2.4960000E+03   4.5699998E-15
   2.5000000E+03   3.8379999E-15
   2.5040000E+03   2.9840001E-15
   2.5080000E+03   3.3280001E-15
   2.5120000E+03   3.1510000E-15
   2.5160000E+03   3.1100001E-15
   2.5200000E+03   1.8530000E-15
   2.5240000E+03   2.7839999E-15
   2.5280000E+03   3.2060000E-15
   2.5320000E+03   1.9310001E-15
   2.5360000E+03   3.6230000E-15
   2.5400000E+03   2.2210000E-15
   2.5440000E+03   2.7660001E-15
   2.5480000E+03   3.2399999E-15
   2.5520000E+03   3.2619999E-15
   2.5560000E+03   2.7129999E-15
   2.5600000E+03   2.1919999E-15
   2.5640000E+03   3.6479998E-15
   2.5680000E+03   2.7590000E-15
   2.5720000E+03   2.8560001E-15
   2.5760000E+03   2.9840001E-15
   2.5800000E+03   4.1740001E-15
   2.5840000E+03   3.4989999E-15
   2.5880000E+03   2.5390001E-15
   2.5920000E+03   3.0340000E-15
   2.5960000E+03   2.4370000E-15
   2.6000000E+03   3.4110000E-15
   2.6040000E+03   3.4639999E-15
   2.6080000E+03   3.2559999E-15
   2.6120000E+03   3.1769999E-15
   2.6160000E+03   3.5230000E-15
   2.6200000E+03   3.1909999E-15
   2.6240000E+03   3.4609999E-15
   2.6280000E+03   4.3980000E-15
   2.6320000E+03   4.1360000E-15
   2.6360000E+03   4.2010001E-15
   2.6400000E+03   4.8849999E-15
   2.6440000E+03   5.3510002E-15
   2.6480000E+03   5.0040000E-15
   2.6520000E+03   5.2540001E-15
   2.6560000E+03   4.4790001E-15
   2.6600000E+03   3.9170001E-15
   2.6640000E+03   3.5360000E-15
   2.6680000E+03   4.5890000E-15
   2.6720000E+03   3.4600000E-15
   2.6760000E+03   4.4970000E-15
   2.6800000E+03   3.4480001E-15
   2.6840000E+03   4.1090000E-15
   2.6880000E+03   4.0229999E-15
   2.6920000E+03   4.2840000E-15
   2.6960000E+03   4.0650001E-15
   2.7000000E+03   3.0580001E-15
   2.7040000E+03   3.2019999E-15
   2.7080000E+03   3.8510001E-15
   2.7120000E+03   4.6129999E-15
   2.7160000E+03   4.4750000E-15
   2.7200000E+03   4.1439999E-15
   2.7240000E+03   4.2570000E-15
   2.7280000E+03   4.0569998E-15
   2.7320000E+03   4.6470002E-15
   2.7360000E+03   3.1810000E-15
   2.7400000E+03   3.4030000E-15
   2.7440000E+03   3.7970001E-15
   2.7480000E+03   3.8389998E-15
   2.7520000E+03   4.0140002E-15
   2.7560000E+03   4.5809998E-15
   2.7600000E+03   4.0129999E-15
   2.7640000E+03   4.3160001E-15
   2.7680000E+03   4.3459998E-15
   2.7720000E+03   4.0970001E-15
   2.7760000E+03   4.2340001E-15
   2.7800000E+03   3.8940002E-15
   2.7840000E+03   3.7399999E-15
   2.7880000E+03   4.1860000E-15
   2.7920000E+03   3.0379999E-15
   2.7960000E+03   2.4990000E-15
   2.8000000E+03   3.8800000E-15
   2.8040000E+03   3.3670000E-15
   2.8080000E+03   2.9320001E-15
   2.8120000E+03   4.2209998E-15
   2.8160000E+03   4.1429999E-15
   2.8200000E+03   4.9440000E-15
   2.8240000E+03   4.0030002E-15
   2.8280000E+03   4.1609998E-15
   2.8320000E+03   4.2510000E-15
   2.8360000E+03   4.0760000E-15
   2.8400000E+03   3.0780000E-15
   2.8440000E+03   3.7530001E-15
   2.8480000E+03   4.2699998E-15
   2.8520000E+03   4.3390000E-15
   2.8560000E+03   4.9810001E-15
   2.8600000E+03   5.1209998E-15
   2.8640000E+03   5.5540001E-15
   2.8680000E+03   5.1730000E-15
   2.8720000E+03   4.5570000E-15
   2.8760000E+03   5.2260002E-15
   2.8800000E+03   5.4330002E-15
   2.8840000E+03   4.8950000E-15
   2.8880000E+03   4.3960002E-15
   2.8920000E+03   5.6750000E-15
   2.8960000E+03   5.2789999E-15
   2.9000000E+03   6.4330001E-15
   2.9040000E+03   6.3010002E-15
   2.9080000E+03   6.2370001E-15
   2.9120000E+03   6.4710001E-15
   2.9160000E+03   7.2159999E-15
   2.9200000E+03   7.5720002E-15
   2.9240000E+03   6.1100002E-15
   2.9280000E+03   5.5480002E-15
   2.9320000E+03   6.2420001E-15
   2.9360000E+03   5.2100001E-15
   2.9400000E+03   6.1949999E-15
   2.9440000E+03   6.0969999E-15
   2.9480000E+03   5.8340000E-15
   2.9520000E+03   5.6360001E-15
   2.9560000E+03   6.1100002E-15
   2.9600000E+03   5.7020001E-15
   2.9640000E+03   6.4749998E-15
   2.9680000E+03   7.0039998E-15
   2.9720000E+03   6.9570001E-15
   2.9760000E+03   7.0990001E-15
   2.9800000E+03   4.9170000E-15
   2.9840000E+03   6.5349998E-15
   2.9880000E+03   5.5720000E-15
   2.9920000E+03   6.6460001E-15
   2.9960000E+03   6.7579999E-15
   3.0000000E+03   5.7930002E-15
   3.0040000E+03   6.0990002E-15
   3.0080000E+03   5.2830000E-15
   3.0120000E+03   4.4860000E-15
   3.0160000E+03   5.3379999E-15
   3.0200000E+03   6.0720002E-15
   3.0240000E+03   6.6410000E-15
   3.0280000E+03   8.0329996E-15
   3.0320000E+03   8.4270003E-15
   3.0360000E+03   8.0370001E-15
   3.0400000E+03   7.6950004E-15
   3.0440000E+03   6.8229999E-15
   3.0480000E+03   5.6829998E-15
   3.0520000E+03   5.7830001E-15
   3.0560000E+03   6.8220000E-15
   3.0600000E+03   5.2100001E-15
   3.0640000E+03   5.8430001E-15
   3.0680000E+03   6.8080002E-15
   3.0720000E+03   7.9819997E-15
   3.0760000E+03   1.1910000E-14
   3.0800000E+03   9.9620002E-15
   3.0840000E+03   6.8239998E-15
   3.0880000E+03   5.3570002E-15
   3.0920000E+03   7.9980002E-15
   3.0960000E+03   8.1820003E-15
   3.1000000E+03   6.9780001E-15
   3.1040000E+03   5.8569999E-15
   3.1080000E+03   5.0640000E-15
   3.1120000E+03   6.8260001E-15
   3.1160000E+03   9.1279997E-15
   3.1200000E+03   8.8829997E-15
   3.1240000E+03   8.0790003E-15
   3.1280000E+03   6.8989999E-15
   3.1320000E+03   5.8959998E-15
   3.1360000E+03   8.1380003E-15
   3.1400000E+03   5.0609998E-15
   3.1440000E+03   3.6390001E-15
   3.1480000E+03   6.3790000E-15
   3.1520000E+03   6.6730001E-15
   3.1560000E+03   8.4989998E-15
   3.1600000E+03   7.0700002E-15
   3.1640000E+03   8.6069999E-15
   3.1680000E+03   7.7269996E-15
   3.1720000E+03   5.3370000E-15
   3.1760000E+03   8.6790003E-15
   3.1800000E+03   5.4360000E-15
   3.1840000E+03   2.0480001E-15
   3.1880000E+03   4.1389998E-15
   3.1920000E+03   9.4169998E-15
   3.1960000E+03   1.5280000E-14
   3.2000000E+03   1.8340000E-14
   3.2040000E+03   8.5300004E-15
   3.2080000E+03   8.1740001E-15
   3.2120000E+03   6.5110000E-15
   3.2160000E+03   7.3690003E-15
   3.2200000E+03   1.1760000E-14
   3.2240000E+03   1.2450000E-14
   3.2280000E+03   7.7160000E-15
   3.2320000E+03   3.3569999E-15
   3.2360000E+03   2.2690001E-15
   3.2400000E+03   4.1109999E-15
   3.2440000E+03   4.4480000E-15
   3.2480000E+03   7.2549998E-15
   3.2520000E+03   8.2119997E-15
   3.2560000E+03   6.4160001E-15
   3.2600000E+03   8.1100000E-15
   3.2640000E+03   9.4099999E-15
   3.2680000E+03   8.8570000E-15
   3.2720000E+03   9.9799997E-15
   3.2760000E+03   7.8050003E-15
   3.2800000E+03   5.7539998E-15
   3.2840000E+03   6.2600000E-15
   3.2880000E+03   9.0290002E-15
   3.2920000E+03   1.0550000E-14
   3.2960000E+03   1.0860000E-14
   3.3000000E+03   1.1660000E-14
   3.3040000E+03   7.9610001E-15
   3.3080000E+03   4.8170001E-15
   3.3120000E+03   5.8500000E-15
   3.3160000E+03   6.8040001E-15
   3.3200000E+03   7.1759996E-15
   3.3240000E+03   6.5619998E-15
   3.3280000E+03   5.1539998E-15
   3.3320000E+03   6.3809999E-15
   3.3360000E+03   7.4999999E-15
   3.3400000E+03   3.9840000E-15
   3.3440000E+03   6.0410000E-15
   3.3480000E+03   6.2119999E-15
   3.3520000E+03   8.5009997E-15
   3.3560000E+03   9.7279998E-15
   3.3600000E+03   1.0880000E-14
   3.3640000E+03   1.1570000E-14
   3.3680000E+03   8.7870004E-15
   3.3720000E+03   6.6830002E-15
   3.3760000E+03   5.6370000E-15
   3.3800000E+03   6.4920002E-15
   3.3840000E+03   9.9380004E-15
   3.3880000E+03   9.6240002E-15
   3.3920000E+03   7.6519999E-15
   3.3960000E+03   7.6049998E-15
   3.4000000E+03   1.0040000E-14
   3.4040000E+03   1.1770000E-14
   3.4080000E+03   1.2800000E-14
   3.4120000E+03   1.1780000E-14
   3.4160000E+03   9.8329997E-15
   3.4200000E+03   9.8400004E-15
   3.4240000E+03   1.0810000E-14
   3.4280000E+03   9.5249998E-15
   3.4320000E+03   5.7610001E-15
   3.4360000E+03   6.7430002E-15
   3.4400000E+03   9.0540004E-15
   3.4440000E+03   8.1550003E-15
   3.4480000E+03   5.4620001E-15
   3.4520000E+03   4.2469999E-15
   3.4560000E+03   8.4379999E-15
   3.4600000E+03   1.0160000E-14
   3.4640000E+03   8.2790000E-15
   3.4680000E+03   8.2530003E-15
   3.4720000E+03   4.7659999E-15
   3.4760000E+03   2.0480001E-15
   3.4800000E+03   2.9620001E-15
   3.4840000E+03   7.6519999E-15
   3.4880000E+03   8.2469999E-15
   3.4920000E+03   6.1550001E-15
   3.4960000E+03   5.4460000E-15
   3.5000000E+03   6.4469998E-15
   3.5040000E+03   5.9989999E-15
   3.5080000E+03   5.7419999E-15
   3.5120000E+03   6.9240001E-15
   3.5160000E+03   7.2839997E-15
   3.5200000E+03   6.2310001E-15
   3.5240000E+03   4.4450002E-15
   3.5280000E+03   2.4679999E-15
   3.5320000E+03   4.8639999E-15
   3.5360000E+03   7.1340003E-15
   3.5400000E+03   6.8700001E-15
   3.5440000E+03   7.9390001E-15
   3.5480000E+03   8.2060001E-15
   3.5520000E+03   7.7510003E-15
   3.5560000E+03   9.2130003E-15
   3.5600000E+03   1.0410000E-14
   3.5640000E+03   8.6000001E-15
   3.5680000E+03   5.9960001E-15
   3.5720000E+03   6.4700002E-15
   3.5760000E+03   7.1179999E-15
   3.5800000E+03   5.7479999E-15
   3.5840000E+03   4.7119998E-15
   3.5880000E+03   4.8610001E-15
   3.5920000E+03   5.6779998E-15
   3.5960000E+03   6.0120001E-15
   3.6000000E+03   5.6109999E-15
   3.6040000E+03   6.2410002E-15
   3.6080000E+03   6.6479999E-15
   3.6120000E+03   5.2619999E-15
   3.6160000E+03   5.1979998E-15
   3.6200000E+03   7.1060000E-15
   3.6240000E+03   7.7449999E-15
   3.6280000E+03   7.4300002E-15
   3.6320000E+03   7.3279997E-15
   3.6360000E+03   6.6639999E-15
   3.6400000E+03   5.7799999E-15
   3.6440000E+03   5.6020002E-15
   3.6480000E+03   6.1990000E-15
   3.6520000E+03   6.5300002E-15
   3.6560000E+03   6.4540002E-15
   3.6600000E+03   6.1100002E-15
   3.6640000E+03   7.0359999E-15
   3.6680000E+03   7.2299996E-15
   3.6720000E+03   6.8040001E-15
   3.6760000E+03   8.0849998E-15
   3.6800000E+03   8.7050000E-15
   3.6840000E+03   8.1520001E-15
   3.6880000E+03   7.2900001E-15
   3.6920000E+03   6.4060001E-15
   3.6960000E+03   6.3969999E-15
   3.7000000E+03   7.7859997E-15
   3.7040000E+03   8.0779999E-15
   3.7080000E+03   7.6779996E-15
   3.7120000E+03   7.0859998E-15
   3.7160000E+03   7.2009998E-15
   3.7200000E+03   1.6320001E-14
   3.7240000E+03   3.6400001E-14
   3.7280000E+03   4.2890001E-14
   3.7320000E+03   2.3700000E-14
   3.7360000E+03   1.0080000E-14
   3.7400000E+03   7.4869996E-15
   3.7440000E+03   6.0819998E-15
   3.7480000E+03   6.1230000E-15
   3.7520000E+03   6.8609999E-15
   3.7560000E+03   6.8190002E-15
   3.7600000E+03   6.9080001E-15
   3.7640000E+03   7.1019998E-15
   3.7680000E+03   6.3460001E-15
   3.7720000E+03   5.8590002E-15
   3.7760000E+03   5.2550000E-15
   3.7800000E+03   4.8859999E-15
   3.7840000E+03   4.9720000E-15
   3.7880000E+03   5.1379998E-15
   3.7920000E+03   5.1880001E-15
   3.7960000E+03   5.6270000E-15
   3.8000000E+03   5.6050000E-15
   3.8040000E+03   4.6420002E-15
   3.8080000E+03   3.4810001E-15
   3.8120000E+03   3.8690000E-15
   3.8160000E+03   5.0260000E-15
   3.8200000E+03   5.6179998E-15
   3.8240000E+03   5.8619999E-15
   3.8280000E+03   4.9340000E-15
   3.8320000E+03   4.6829999E-15
   3.8360000E+03   6.1739999E-15
   3.8400000E+03   5.7960000E-15
   3.8440000E+03   4.5460000E-15
   3.8480000E+03   5.2330000E-15
   3.8520000E+03   5.3630001E-15
   3.8560000E+03   5.0680001E-15
   3.8600000E+03   5.0009998E-15
   3.8640000E+03   5.8239999E-15
   3.8680000E+03   5.3350002E-15
   3.8720000E+03   3.7360002E-15
   3.8760000E+03   4.0380000E-15
   3.8800000E+03   5.3920000E-15
   3.8840000E+03   7.0290000E-15
   3.8880000E+03   7.8429999E-15
   3.8920000E+03   6.6130001E-15
   3.8960000E+03   4.8359999E-15
   3.9000000E+03   4.6610000E-15
   3.9040000E+03   5.2330000E-15
   3.9080000E+03   4.5620000E-15
   3.9120000E+03   4.0880000E-15
   3.9160000E+03   4.1109999E-15
   3.9200000E+03   4.2000002E-15
   3.9240000E+03   4.6100001E-15
   3.9280000E+03   4.6069999E-15
   3.9320000E+03   4.1230002E-15
   3.9360000E+03   4.5490002E-15
   3.9400000E+03   4.9210001E-15
   3.9440000E+03   5.1790000E-15
   3.9480000E+03   5.3790001E-15
   3.9520000E+03   4.6640002E-15
   3.9560000E+03   3.7800001E-15
   3.9600000E+03   4.0220000E-15
   3.9640000E+03   5.0169999E-15
   3.9680000E+03   6.1010000E-15
   3.9720000E+03   6.2150001E-15
   3.9760000E+03   5.0300001E-15
   3.9800000E+03   4.6260001E-15
   3.9840000E+03   5.0609998E-15
   3.9880000E+03   5.3630001E-15
   3.9920000E+03   5.0489999E-15
   3.9960000E+03   5.5860002E-15
   4.0000000E+03   5.3190001E-15
   4.0040000E+03   4.7370000E-15
   4.0080000E+03   4.7719998E-15
   4.0120000E+03   4.6960002E-15
   4.0160000E+03   5.0800001E-15
   4.0200000E+03   5.1030000E-15
   4.0240000E+03   4.8039999E-15
   4.0280000E+03   5.0389999E-15
   4.0320000E+03   5.0709999E-15
   4.0360000E+03   5.0140001E-15
   4.0400000E+03   5.6050000E-15
   4.0440000E+03   5.6150000E-15
   4.0480000E+03   5.3819999E-15
   4.0520000E+03   5.0989999E-15
   4.0560000E+03   4.6700001E-15
   4.0600000E+03   4.8830001E-15
   4.0640000E+03   5.6590000E-15
   4.0680000E+03   5.4869998E-15
   4.0720000E+03   5.0740001E-15
   4.0760000E+03   4.9910002E-15
   4.0800000E+03   4.6990000E-15
   4.0840000E+03   4.9060000E-15
   4.0880000E+03   5.3700000E-15
   4.0920000E+03   5.3350002E-15
   4.0960000E+03   5.9520001E-15
   4.1000000E+03   8.2339997E-15
   4.1040000E+03   8.4059999E-15
   4.1080000E+03   5.8050001E-15
   4.1120000E+03   4.3710000E-15
   4.1160000E+03   4.1740001E-15
   4.1200000E+03   4.2670000E-15
   4.1240000E+03   4.6669999E-15
   4.1280000E+03   4.7690001E-15
   4.1320000E+03   5.2899999E-15
   4.1360000E+03   5.9009999E-15
   4.1400000E+03   5.3160000E-15
   4.1440000E+03   4.3430001E-15
   4.1480000E+03   4.5649998E-15
   4.1520000E+03   4.8900000E-15
   4.1560000E+03   4.8450001E-15
   4.1600000E+03   4.6610000E-15
   4.1640000E+03   4.6420002E-15
   4.1680000E+03   4.5589998E-15
   4.1720000E+03   4.2629999E-15
   4.1760000E+03   4.0920001E-15
   4.1800000E+03   4.6100001E-15
   4.1840000E+03   5.1060002E-15
   4.1880000E+03   4.9559999E-15
   4.1920000E+03   4.5589998E-15
   4.1960000E+03   4.5020000E-15
   4.2000000E+03   4.4759999E-15
   4.2040000E+03   4.6420002E-15
   4.2080000E+03   4.9559999E-15
   4.2120000E+03   4.8230001E-15
   4.2160000E+03   4.5050002E-15
   4.2200000E+03   4.5050002E-15
   4.2240000E+03   4.8610001E-15
   4.2280000E+03   5.2739998E-15
   4.2320000E+03   4.9340000E-15
   4.2360000E+03   4.3110000E-15
   4.2400000E+03   4.4100000E-15
   4.2440000E+03   5.4429998E-15
   4.2480000E+03   6.1419998E-15
   4.2520000E+03   5.4360000E-15
   4.2560000E+03   4.9409998E-15
   4.2600000E+03   5.1500001E-15
   4.2640000E+03   4.6480001E-15
   4.2680000E+03   4.2730000E-15
   4.2720000E+03   4.7530000E-15
   4.2760000E+03   5.0260000E-15
   4.2800000E+03   4.7020002E-15
   4.2840000E+03   4.5780001E-15
   4.2880000E+03   5.0449998E-15
   4.2920000E+03   5.0580001E-15
   4.2960000E+03   4.4800000E-15
   4.3000000E+03   4.3110000E-15
   4.3040000E+03   4.4800000E-15
   4.3080000E+03   4.5429998E-15
   4.3120000E+03   4.2000002E-15
   4.3160000E+03   3.8439998E-15
   4.3200000E+03   4.1900001E-15
   4.3240000E+03   4.7780002E-15
   4.3280000E+03   5.1979998E-15
   4.3320000E+03   5.7890001E-15
   4.3360000E+03   9.0769999E-15
   4.3400000E+03   1.2160000E-14
   4.3440000E+03   9.6739997E-15
   4.3480000E+03   6.1100002E-15
   4.3520000E+03   5.1309999E-15
   4.3560000E+03   5.1689999E-15
   4.3600000E+03   5.1089999E-15
   4.3640000E+03   5.0929999E-15
   4.3680000E+03   5.4869998E-15
   4.3720000E+03   5.4710002E-15
   4.3760000E+03   5.1340001E-15
   4.3800000E+03   4.7210000E-15
   4.3840000E+03   4.3870001E-15
   4.3880000E+03   4.4219999E-15
   4.3920000E+03   4.5780001E-15
   4.3960000E+03   4.7049999E-15
   4.4000000E+03   4.5080000E-15
   4.4040000E+03   4.2890000E-15
   4.4080000E+03   4.4190001E-15
   4.4120000E+03   4.5020000E-15
   4.4160000E+03   4.5620000E-15
   4.4200000E+03   4.7690001E-15
   4.4240000E+03   5.3540000E-15
   4.4280000E+03   5.1979998E-15
   4.4320000E+03   4.6000000E-15
   4.4360000E+03   4.4290002E-15
   4.4400000E+03   4.3970001E-15
   4.4440000E+03   4.0540001E-15
   4.4480000E+03   3.8499998E-15
   4.4520000E+03   3.7509999E-15
   4.4560000E+03   4.2060001E-15
   4.4600000E+03   4.4759999E-15
   4.4640000E+03   4.3519998E-15
   4.4680000E+03   4.9249998E-15
   4.4720000E+03   5.2270001E-15
   4.4760000E+03   4.3839999E-15
   4.4800000E+03   4.4829998E-15
   4.4840000E+03   4.7850001E-15
   4.4880000E+03   4.4100000E-15
   4.4920000E+03   4.4190001E-15
   4.4960000E+03   5.0389999E-15
   4.5000000E+03   5.0609998E-15
   4.5040000E+03   4.6100001E-15
   4.5080000E+03   4.3939999E-15
   4.5120000E+03   4.2280001E-15
   4.5160000E+03   4.1109999E-15
   4.5200000E+03   3.8499998E-15
   4.5240000E+03   3.9299999E-15
   4.5280000E+03   4.0440000E-15
   4.5320000E+03   3.9770001E-15
   4.5360000E+03   4.0920001E-15
   4.5400000E+03   4.1740001E-15
   4.5440000E+03   4.3459998E-15
   4.5480000E+03   4.0220000E-15
   4.5520000E+03   3.4840000E-15
   4.5560000E+03   3.5380001E-15
   4.5600000E+03   4.2629999E-15
   4.5640000E+03   4.4219999E-15
   4.5680000E+03   4.3839999E-15
   4.5720000E+03   4.3619999E-15
   4.5760000E+03   4.3970001E-15
   4.5800000E+03   4.3459998E-15
   4.5840000E+03   3.8630001E-15
   4.5880000E+03   4.1580000E-15
   4.5920000E+03   4.6420002E-15
   4.5960000E+03   4.6960002E-15
   4.6000000E+03   4.5689999E-15
   4.6040000E+03   4.2409999E-15
   4.6080000E+03   3.7899998E-15
   4.6120000E+03   3.8279998E-15
   4.6160000E+03   3.9359999E-15
   4.6200000E+03   3.8879998E-15
   4.6240000E+03   4.2730000E-15
   4.6280000E+03   4.5209998E-15
   4.6320000E+03   4.3330000E-15
   4.6360000E+03   4.4059998E-15
   4.6400000E+03   4.5369998E-15
   4.6440000E+03   4.4700000E-15
   4.6480000E+03   4.4100000E-15
   4.6520000E+03   4.2190000E-15
   4.6560000E+03   4.4350001E-15
   4.6600000E+03   4.7850001E-15
   4.6640000E+03   4.5689999E-15
   4.6680000E+03   4.6449999E-15
   4.6720000E+03   4.5429998E-15
   4.6760000E+03   4.0189998E-15
   4.6800000E+03   3.9010001E-15
   4.6840000E+03   3.8720002E-15
   4.6880000E+03   3.9330001E-15
   4.6920000E+03   4.1869999E-15
   4.6960000E+03   3.9230001E-15
   4.7000000E+03   3.4719999E-15
   4.7040000E+03   3.7609999E-15
   4.7080000E+03   3.9230001E-15
   4.7120000E+03   4.1929999E-15
   4.7160000E+03   4.4379999E-15
   4.7200000E+03   4.1329999E-15
   4.7240000E+03   3.8750000E-15
   4.7280000E+03   3.8250000E-15
   4.7320000E+03   3.6849999E-15
   4.7360000E+03   3.6180000E-15
   4.7400000E+03   3.3830000E-15
   4.7440000E+03   3.2170000E-15
   4.7480000E+03   3.3510000E-15
   4.7520000E+03   3.5860000E-15
   4.7560000E+03   3.6749998E-15
   4.7600000E+03   3.7449999E-15
   4.7640000E+03   3.4460000E-15
   4.7680000E+03   3.1469999E-15
   4.7720000E+03   3.3290000E-15
   4.7760000E+03   3.6180000E-15
   4.7800000E+03   3.6560000E-15
   4.7840000E+03   3.6430002E-15
   4.7880000E+03   3.6149998E-15
   4.7920000E+03   3.2430001E-15
   4.7960000E+03   3.4080000E-15
   4.8000000E+03   3.9959999E-15
   4.8040000E+03   4.1869999E-15
   4.8080000E+03   4.0569998E-15
   4.8120000E+03   4.2220002E-15
   4.8160000E+03   4.2160002E-15
   4.8200000E+03   3.6469999E-15
   4.8240000E+03   3.6560000E-15
   4.8280000E+03   4.0880000E-15
   4.8320000E+03   3.8180002E-15
   4.8360000E+03   3.7289999E-15
   4.8400000E+03   3.8370000E-15
   4.8440000E+03   2.6990000E-15
   4.8480000E+03   3.4719999E-15
   4.8520000E+03   5.3920000E-15
   4.8560000E+03   1.0220000E-14
   4.8600000E+03   1.7760001E-14
   4.8640000E+03   1.7460000E-14
   4.8680000E+03   9.7540003E-15
   4.8720000E+03   5.7639999E-15
   4.8760000E+03   4.5809998E-15
   4.8800000E+03   4.1389998E-15
   4.8840000E+03   3.7069999E-15
   4.8880000E+03   3.5350001E-15
   4.8920000E+03   3.6270002E-15
   4.8960000E+03   3.6969998E-15
   4.9000000E+03   3.8090000E-15
   4.9040000E+03   3.8150000E-15
   4.9080000E+03   3.7100001E-15
   4.9120000E+03   3.6400000E-15
   4.9160000E+03   3.9010001E-15
   4.9200000E+03   3.9419999E-15
   4.9240000E+03   3.9230001E-15
   4.9280000E+03   3.8370000E-15
   4.9320000E+03   3.6270002E-15
   4.9360000E+03   3.5000001E-15
   4.9400000E+03   3.3860000E-15
   4.9440000E+03   3.6589998E-15
   4.9480000E+03   4.1740001E-15
   4.9520000E+03   5.2230000E-15
   4.9560000E+03   8.0370001E-15
   4.9600000E+03   9.5789999E-15
   4.9640000E+03   6.8349998E-15
   4.9680000E+03   4.5560001E-15
   4.9720000E+03   3.8659998E-15
   4.9760000E+03   3.5230000E-15
   4.9800000E+03   3.4879999E-15
   4.9840000E+03   3.6240000E-15
   4.9880000E+03   3.8310000E-15
   4.9920000E+03   3.8630001E-15
   4.9960000E+03   4.3839999E-15
   5.0000000E+03   7.8530000E-15
   5.0040000E+03   1.8529999E-14
   5.0080000E+03   2.4029999E-14
   5.0120000E+03   1.4990000E-14
   5.0160000E+03   6.7650002E-15
   5.0200000E+03   4.5270002E-15
   5.0240000E+03   3.9579999E-15
   5.0280000E+03   3.7129998E-15
   5.0320000E+03   3.7640001E-15
   5.0360000E+03   3.5350001E-15
   5.0400000E+03   3.3800001E-15
   5.0440000E+03   3.1920000E-15
   5.0480000E+03   3.4490000E-15
   5.0520000E+03   3.4879999E-15
   5.0560000E+03   3.2209999E-15
   5.0600000E+03   3.1630000E-15
   5.0640000E+03   3.4180001E-15
   5.0680000E+03   3.4560001E-15
   5.0720000E+03   3.3510000E-15
   5.0760000E+03   3.5040000E-15
   5.0800000E+03   3.5929998E-15
   5.0840000E+03   3.4340001E-15
   5.0880000E+03   3.4080000E-15
   5.0920000E+03   3.1549999E-15
   5.0960000E+03   3.0780000E-15
   5.1000000E+03   3.4430000E-15
   5.1040000E+03   3.4050000E-15
   5.1080000E+03   3.4560001E-15
   5.1120000E+03   3.3409999E-15
   5.1160000E+03   3.1980000E-15
   5.1200000E+03   2.9250000E-15
   5.1240000E+03   2.8710000E-15
   5.1280000E+03   3.3250001E-15
   5.1320000E+03   3.5890001E-15
   5.1360000E+03   3.6210002E-15
   5.1400000E+03   3.5420000E-15
   5.1440000E+03   3.3100000E-15
   5.1480000E+03   3.4590001E-15
   5.1520000E+03   3.5580000E-15
   5.1560000E+03   3.3759999E-15
   5.1600000E+03   2.8160000E-15
   5.1640000E+03   2.7159999E-15
   5.1680000E+03   2.9710000E-15
   5.1720000E+03   3.0899999E-15
   5.1760000E+03   3.2140000E-15
   5.1800000E+03   3.1920000E-15
   5.1840000E+03   3.1650000E-15
   5.1880000E+03   3.0990001E-15
   5.1920000E+03   3.1359999E-15
   5.1960000E+03   3.2940000E-15
   5.2000000E+03   3.3450000E-15
   5.2040000E+03   3.1480001E-15
   5.2080000E+03   3.0730000E-15
   5.2120000E+03   2.8820000E-15
   5.2160000E+03   2.7150000E-15
   5.2200000E+03   3.0030001E-15
   5.2240000E+03   3.3599999E-15
   5.2280000E+03   3.3670000E-15
   5.2320000E+03   3.2460001E-15
   5.2360000E+03   3.2750000E-15
   5.2400000E+03   3.3450000E-15
   5.2440000E+03   3.2360000E-15
   5.2480000E+03   3.0940000E-15
   5.2520000E+03   2.9600000E-15
   5.2560000E+03   3.1499999E-15
   5.2600000E+03   3.2969999E-15
   5.2640000E+03   3.4560001E-15
   5.2680000E+03   3.7360002E-15
   5.2720000E+03   3.3670000E-15
   5.2760000E+03   3.2999999E-15
   5.2800000E+03   3.5450000E-15
   5.2840000E+03   3.3920000E-15
   5.2880000E+03   3.1740000E-15
   5.2920000E+03   3.2430001E-15
   5.2960000E+03   3.4909999E-15
   5.3000000E+03   3.4719999E-15
   5.3040000E+03   2.9559999E-15
   5.3080000E+03   2.9530000E-15
   5.3120000E+03   3.3189999E-15
   5.3160000E+03   3.1890001E-15
   5.3200000E+03   3.0290000E-15
   5.3240000E+03   3.0079999E-15
   5.3280000E+03   2.8490000E-15
   5.3320000E+03   2.7200000E-15
   5.3360000E+03   2.8579999E-15
   5.3400000E+03   3.0960001E-15
   5.3440000E+03   3.1040001E-15
   5.3480000E+03   3.2140000E-15
   5.3520000E+03   3.0610000E-15
   5.3560000E+03   2.9660000E-15
   5.3600000E+03   2.9060000E-15
   5.3640000E+03   3.1389999E-15
   5.3680000E+03   3.0070000E-15
   5.3720000E+03   2.8450001E-15
   5.3760000E+03   3.1020000E-15
   5.3800000E+03   3.3029999E-15
   5.3840000E+03   3.1780001E-15
   5.3880000E+03   3.0640000E-15
   5.3920000E+03   3.1790000E-15
   5.3960000E+03   3.0949999E-15
   5.4000000E+03   2.9099999E-15
   5.4040000E+03   3.0550001E-15
   5.4080000E+03   3.3510000E-15
   5.4120000E+03   3.3219999E-15
   5.4160000E+03   3.1950000E-15
   5.4200000E+03   3.1890001E-15
   5.4240000E+03   3.2010000E-15
   5.4280000E+03   3.4020000E-15
   5.4320000E+03   3.4879999E-15
   5.4360000E+03   3.2360000E-15
   5.4400000E+03   2.7459999E-15
   5.4440000E+03   2.4470000E-15
   5.4480000E+03   2.4140001E-15
   5.4520000E+03   2.7260000E-15
   5.4560000E+03   2.8670001E-15
   5.4600000E+03   2.9399999E-15
   5.4640000E+03   2.9630000E-15
   5.4680000E+03   2.8050000E-15
   5.4720000E+03   2.6410000E-15
   5.4760000E+03   3.0130000E-15
   5.4800000E+03   3.0820001E-15
   5.4840000E+03   2.8670001E-15
   5.4880000E+03   2.9369999E-15
   5.4920000E+03   3.2650001E-15
   5.4960000E+03   3.1210000E-15
   5.5000000E+03   1.6880000E-15
   5.5040000E+03   1.6530000E-15
   5.5080000E+03   2.5300000E-15
   5.5120000E+03   2.8689999E-15
   5.5160000E+03   2.3130001E-15
   5.5200000E+03   2.1399999E-15
   5.5240000E+03   3.0649999E-15
   5.5280000E+03   2.6930000E-15
   5.5320000E+03   2.6400001E-15
   5.5360000E+03   3.2050001E-15
   5.5400000E+03   3.5420000E-15
   5.5440000E+03   3.3800001E-15
   5.5480000E+03   3.2710000E-15
   5.5520000E+03   3.0910000E-15
   5.5560000E+03   3.1609999E-15
   5.5600000E+03   2.9160001E-15
   5.5640000E+03   2.4940000E-15
   5.5680000E+03   2.8750001E-15
   5.5720000E+03   3.1719999E-15
   5.5760000E+03   2.9110000E-15
   5.5800000E+03   3.1890001E-15
   5.5840000E+03   3.0670000E-15
   5.5880000E+03   2.8670001E-15
   5.5920000E+03   2.9930000E-15
   5.5960000E+03   3.1020000E-15
   5.6000000E+03   3.0409999E-15
   5.6040000E+03   2.8700000E-15
   5.6080000E+03   2.3550000E-15
   5.6120000E+03   2.5989999E-15
   5.6160000E+03   3.0789999E-15
   5.6200000E+03   2.9200000E-15
   5.6240000E+03   2.6610000E-15
   5.6280000E+03   2.7349999E-15
   5.6320000E+03   3.1370001E-15
   5.6360000E+03   3.1719999E-15
   5.6400000E+03   2.8720001E-15
   5.6440000E+03   2.5540000E-15
   5.6480000E+03   2.2599999E-15
   5.6520000E+03   2.4120000E-15
   5.6560000E+03   2.4780000E-15
   5.6600000E+03   2.6110000E-15
   5.6640000E+03   2.4070000E-15
   5.6680000E+03   2.4459999E-15
   5.6720000E+03   2.7880001E-15
   5.6760000E+03   3.2940000E-15
   5.6800000E+03   3.6560000E-15
   5.6840000E+03   3.2170000E-15
   5.6880000E+03   2.9270001E-15
   5.6920000E+03   2.8560001E-15
   5.6960000E+03   2.8420001E-15
   5.7000000E+03   2.8230001E-15
   5.7040000E+03   2.6840001E-15
   5.7080000E+03   2.8620000E-15
   5.7120000E+03   3.1059999E-15
   5.7160000E+03   2.9710000E-15
   5.7200000E+03   2.7340000E-15
   5.7240000E+03   2.8790000E-15
   5.7280000E+03   3.1100001E-15
   5.7320000E+03   2.9440000E-15
   5.7360000E+03   2.3069999E-15
   5.7400000E+03   1.5100000E-15
   5.7440000E+03   1.9430000E-15
   5.7480000E+03   2.6589999E-15
   5.7520000E+03   2.6939999E-15
   5.7560000E+03   2.7159999E-15
   5.7600000E+03   2.7720000E-15
   5.7640000E+03   2.8370001E-15
   5.7680000E+03   2.6950001E-15
   5.7720000E+03   2.6889999E-15
   5.7760000E+03   2.9399999E-15
   5.7800000E+03   2.6730001E-15
   5.7840000E+03   2.8139999E-15
   5.7880000E+03   2.9589999E-15
   5.7920000E+03   2.8610001E-15
   5.7960000E+03   3.0180000E-15
   5.8000000E+03   3.1730000E-15
   5.8040000E+03   2.8059999E-15
   5.8080000E+03   2.8860001E-15
   5.8120000E+03   3.0709999E-15
   5.8160000E+03   2.9740000E-15
   5.8200000E+03   2.5020000E-15
   5.8240000E+03   2.4970000E-15
   5.8280000E+03   2.6939999E-15
   5.8320000E+03   2.5120001E-15
   5.8360000E+03   2.7129999E-15
   5.8400000E+03   2.6620001E-15
   5.8440000E+03   2.4280000E-15
   5.8480000E+03   2.5819999E-15
   5.8520000E+03   2.5739999E-15
   5.8560000E+03   2.6270001E-15
   5.8600000E+03   2.7679999E-15
   5.8640000E+03   2.9850000E-15
   5.8680000E+03   2.9969999E-15
   5.8720000E+03   3.1230001E-15
   5.8760000E+03   4.2469999E-15
   5.8800000E+03   4.3140002E-15
   5.8840000E+03   3.2999999E-15
   5.8880000E+03   2.5329999E-15
   5.8920000E+03   2.3880000E-15
   5.8960000E+03   2.4850001E-15
   5.9000000E+03   2.7299999E-15
   5.9040000E+03   2.8380000E-15
   5.9080000E+03   2.7200000E-15
   5.9120000E+03   2.6220000E-15
   5.9160000E+03   2.4740001E-15
   5.9200000E+03   2.5290000E-15
   5.9240000E+03   2.5180000E-15
   5.9280000E+03   2.7290000E-15
   5.9320000E+03   2.8680000E-15
   5.9360000E+03   2.9930000E-15
   5.9400000E+03   2.9660000E-15
   5.9440000E+03   2.8689999E-15
   5.9480000E+03   2.8190000E-15
   5.9520000E+03   2.8810000E-15
   5.9560000E+03   2.8540000E-15
   5.9600000E+03   2.6240001E-15
   5.9640000E+03   2.6470000E-15
   5.9680000E+03   2.8549999E-15
   5.9720000E+03   2.8279999E-15
   5.9760000E+03   2.8849999E-15
   5.9800000E+03   2.9369999E-15
   5.9840000E+03   2.9720000E-15
   5.9880000E+03   2.6580000E-15
   5.9920000E+03   2.7330001E-15
   5.9960000E+03   2.7660001E-15
   6.0000000E+03   2.7620000E-15
   6.0040000E+03   2.8100000E-15
   6.0080000E+03   2.5700000E-15
   6.0120000E+03   2.3430001E-15
   6.0160000E+03   2.4509999E-15
   6.0200000E+03   2.6039999E-15
   6.0240000E+03   2.4949999E-15
   6.0280000E+03   2.6580000E-15
   6.0320000E+03   2.5680000E-15
   6.0360000E+03   2.5219999E-15
   6.0400000E+03   2.6110000E-15
   6.0440000E+03   2.4759999E-15
   6.0480000E+03   2.0370001E-15
   6.0520000E+03   1.9640000E-15
   6.0560000E+03   2.4120000E-15
   6.0600000E+03   2.3590001E-15
   6.0640000E+03   2.4459999E-15
   6.0680000E+03   2.5180000E-15
   6.0720000E+03   2.5890000E-15
   6.0760000E+03   2.6850000E-15
   6.0800000E+03   2.6369999E-15
   6.0840000E+03   2.5780000E-15
   6.0880000E+03   2.4660001E-15
   6.0920000E+03   2.5180000E-15
   6.0960000E+03   2.6339999E-15
   6.1000000E+03   2.8100000E-15
   6.1040000E+03   2.7129999E-15
   6.1080000E+03   2.6760001E-15
   6.1120000E+03   2.7590000E-15
   6.1160000E+03   2.6440000E-15
   6.1200000E+03   2.5840000E-15
   6.1240000E+03   2.4600001E-15
   6.1280000E+03   2.5940001E-15
   6.1320000E+03   2.3190000E-15
   6.1360000E+03   2.2270000E-15
   6.1400000E+03   2.3050001E-15
   6.1440000E+03   2.4910000E-15
   6.1480000E+03   2.4090000E-15
   6.1520000E+03   2.2760000E-15
   6.1560000E+03   2.4049999E-15
   6.1600000E+03   2.4770000E-15
   6.1640000E+03   2.5560001E-15
   6.1680000E+03   2.4290000E-15
   6.1720000E+03   2.6050001E-15
   6.1760000E+03   2.4340000E-15
   6.1800000E+03   2.4060001E-15
   6.1840000E+03   2.4090000E-15
   6.1880000E+03   2.5240000E-15
   6.1920000E+03   2.3850000E-15
   6.1960000E+03   2.3590001E-15
   6.2000000E+03   2.6930000E-15
   6.2040000E+03   2.5659999E-15
   6.2080000E+03   2.5150001E-15
   6.2120000E+03   2.6980000E-15
   6.2160000E+03   2.5190000E-15
   6.2200000E+03   2.2920000E-15
   6.2240000E+03   2.2240000E-15
   6.2280000E+03   2.3630000E-15
   6.2320000E+03   2.4850001E-15
   6.2360000E+03   2.7489999E-15
   6.2400000E+03   2.4450000E-15
   6.2440000E+03   2.2299999E-15
   6.2480000E+03   2.3180001E-15
   6.2520000E+03   2.4610000E-15
   6.2560000E+03   2.4030001E-15
   6.2600000E+03   2.8860001E-15
   6.2640000E+03   3.0159999E-15
   6.2680000E+03   2.7899999E-15
   6.2720000E+03   2.7710001E-15
   6.2760000E+03   2.4590000E-15
   6.2800000E+03   2.3950001E-15
   6.2840000E+03   2.2929999E-15
   6.2880000E+03   2.1839999E-15
   6.2920000E+03   1.8830000E-15
   6.2960000E+03   1.8390000E-15
   6.3000000E+03   2.2629999E-15
   6.3040000E+03   2.1440001E-15
   6.3080000E+03   2.4600001E-15
   6.3120000E+03   2.4729999E-15
   6.3160000E+03   2.3710000E-15
   6.3200000E+03   2.3300000E-15
   6.3240000E+03   2.5390001E-15
   6.3280000E+03   2.4790001E-15
   6.3320000E+03   2.1550000E-15
   6.3360000E+03   2.1790001E-15
   6.3400000E+03   2.4690000E-15
   6.3440000E+03   2.5980000E-15
   6.3480000E+03   2.6330000E-15
   6.3520000E+03   2.7720000E-15
   6.3560000E+03   2.5910001E-15
   6.3600000E+03   2.5500001E-15
   6.3640000E+03   2.4690000E-15
   6.3680000E+03   2.5950000E-15
   6.3720000E+03   2.7269999E-15
   6.3760000E+03   2.6870001E-15
   6.3800000E+03   2.5989999E-15
   6.3840000E+03   2.3669999E-15
   6.3880000E+03   2.2150001E-15
   6.3920000E+03   2.3220000E-15
   6.3960000E+03   2.3990000E-15
   6.4000000E+03   2.4930001E-15
   6.4040000E+03   2.4129999E-15
   6.4080000E+03   2.3550000E-15
   6.4120000E+03   2.5640001E-15
   6.4160000E+03   2.5180000E-15
   6.4200000E+03   2.2190000E-15
   6.4240000E+03   2.2080000E-15
   6.4280000E+03   2.2810000E-15
   6.4320000E+03   2.3790000E-15
   6.4360000E+03   2.4030001E-15
   6.4400000E+03   2.5959999E-15
   6.4440000E+03   2.5300000E-15
   6.4480000E+03   2.1930001E-15
   6.4520000E+03   2.0799999E-15
   6.4560000E+03   2.1839999E-15
   6.4600000E+03   2.3760001E-15
   6.4640000E+03   2.2400000E-15
   6.4680000E+03   2.5120001E-15
   6.4720000E+03   2.4530000E-15
   6.4760000E+03   2.3030000E-15
   6.4800000E+03   2.4400000E-15
   6.4840000E+03   2.4770000E-15
   6.4880000E+03   2.2299999E-15
   6.4920000E+03   2.2450001E-15
   6.4960000E+03   2.1539999E-15
   6.5000000E+03   2.1520001E-15
   6.5040000E+03   2.2310001E-15
   6.5080000E+03   2.0220000E-15
   6.5120000E+03   2.1800000E-15
   6.5160000E+03   2.1260000E-15
   6.5200000E+03   2.2870000E-15
   6.5240000E+03   2.7630001E-15
   6.5280000E+03   2.8359999E-15
   6.5320000E+03   3.0150000E-15
   6.5360000E+03   2.6790000E-15
   6.5400000E+03   2.9850000E-15
   6.5440000E+03   4.0409998E-15
   6.5480000E+03   5.8500000E-15
   6.5520000E+03   7.1880004E-15
   6.5560000E+03   1.1390000E-14
   6.5600000E+03   3.4810001E-14
   6.5640000E+03   5.7159999E-14
   6.5680000E+03   3.6690001E-14
   6.5720000E+03   1.1040000E-14
   6.5760000E+03   5.7259999E-15
   6.5800000E+03   7.9610001E-15
   6.5840000E+03   1.1860000E-14
   6.5880000E+03   8.8890001E-15
   6.5920000E+03   3.9770001E-15
   6.5960000E+03   2.9740000E-15
   6.6000000E+03   3.0770001E-15
   6.6040000E+03   2.9099999E-15
   6.6080000E+03   2.2620000E-15
   6.6120000E+03   2.2340001E-15
   6.6160000E+03   2.4260000E-15
   6.6200000E+03   2.6500000E-15
   6.6240000E+03   2.4890000E-15
   6.6280000E+03   2.5279999E-15
   6.6320000E+03   2.6030000E-15
   6.6360000E+03   2.3470000E-15
   6.6400000E+03   2.2700000E-15
   6.6440000E+03   2.3939999E-15
   6.6480000E+03   2.4370000E-15
   6.6520000E+03   2.3770000E-15
   6.6560000E+03   2.1910000E-15
   6.6600000E+03   2.2120001E-15
   6.6640000E+03   2.0190000E-15
   6.6680000E+03   2.3669999E-15
   6.6720000E+03   2.6960000E-15
   6.6760000E+03   2.9460001E-15
   6.6800000E+03   2.8520000E-15
   6.6840000E+03   2.4740001E-15
   6.6880000E+03   2.5490000E-15
   6.6920000E+03   2.5590000E-15
   6.6960000E+03   2.4830000E-15
   6.7000000E+03   2.5279999E-15
   6.7040000E+03   2.6410000E-15
   6.7080000E+03   2.5540000E-15
   6.7120000E+03   3.6400000E-15
   6.7160000E+03   5.4269998E-15
   6.7200000E+03   5.4170002E-15
   6.7240000E+03   4.1200000E-15
   6.7280000E+03   4.2120001E-15
   6.7320000E+03   5.2170000E-15
   6.7360000E+03   4.2220002E-15
   6.7400000E+03   2.8870000E-15
   6.7440000E+03   2.4740001E-15
   6.7480000E+03   2.4269999E-15
   6.7520000E+03   2.6419999E-15
   6.7560000E+03   2.4120000E-15
   6.7600000E+03   2.1120000E-15
   6.7640000E+03   1.9280001E-15
   6.7680000E+03   2.2730000E-15
   6.7720000E+03   2.3500000E-15
   6.7760000E+03   2.3419999E-15
   6.7800000E+03   2.2029999E-15
   6.7840000E+03   2.2629999E-15
   6.7880000E+03   2.4290000E-15
   6.7920000E+03   2.2139999E-15
   6.7960000E+03   1.9980000E-15
   6.8000000E+03   2.3900000E-15
   6.8040000E+03   2.3990000E-15
   6.8080000E+03   2.1490001E-15
   6.8120000E+03   2.2109999E-15
   6.8160000E+03   2.5329999E-15
   6.8200000E+03   2.5890000E-15
   6.8240000E+03   2.3969999E-15
   6.8280000E+03   2.4239999E-15
   6.8320000E+03   2.4250001E-15
   6.8360000E+03   2.0719999E-15
   6.8400000E+03   2.2780000E-15
   6.8440000E+03   2.3119999E-15
   6.8480000E+03   2.3550000E-15
   6.8520000E+03   2.2790000E-15
   6.8560000E+03   2.1839999E-15
   6.8600000E+03   2.5180000E-15
   6.8640000E+03   2.2130000E-15
   6.8680000E+03   1.6000000E-15
   6.8720000E+03   1.5390000E-15
   6.8760000E+03   1.7290000E-15
   6.8800000E+03   1.8450000E-15
   6.8840000E+03   1.8729999E-15
   6.8880000E+03   2.2240000E-15
   6.8920000E+03   2.2610001E-15
   6.8960000E+03   2.3500000E-15
   6.9000000E+03   2.1080001E-15
   6.9040000E+03   1.8999999E-15
   6.9080000E+03   2.2260000E-15
   6.9120000E+03   2.0339999E-15
   6.9160000E+03   2.3930000E-15
   6.9200000E+03   2.4700000E-15
   6.9240000E+03   2.1690000E-15
   6.9280000E+03   2.1720000E-15
   6.9320000E+03   1.9510000E-15
   6.9360000E+03   2.0440000E-15
   6.9400000E+03   1.8910000E-15
   6.9440000E+03   2.1040000E-15
   6.9480000E+03   1.9430000E-15
   6.9520000E+03   1.6800000E-15
   6.9560000E+03   1.8060000E-15
   6.9600000E+03   1.3980000E-15
   6.9640000E+03   1.6620000E-15
   6.9680000E+03   2.0060000E-15
   6.9720000E+03   1.8230000E-15
   6.9760000E+03   1.7469999E-15
   6.9800000E+03   2.0039999E-15
   6.9840000E+03   2.4060001E-15
   6.9880000E+03   2.2659999E-15
   6.9920000E+03   2.2130000E-15
   6.9960000E+03   2.3100001E-15
   7.0000000E+03   2.2010001E-15
   7.0040000E+03   2.1649999E-15
   7.0080000E+03   2.4150000E-15
   7.0120000E+03   2.4480000E-15
   7.0160000E+03   1.9610001E-15
   7.0200000E+03   2.2219999E-15
   7.0240000E+03   2.2880001E-15
   7.0280000E+03   1.7760000E-15
   7.0320000E+03   1.9700000E-15
   7.0360000E+03   2.0100001E-15
   7.0400000E+03   2.3570000E-15
   7.0440000E+03   2.4820001E-15
   7.0480000E+03   2.7170001E-15
   7.0520000E+03   2.7230000E-15
   7.0560000E+03   1.9910001E-15
   7.0600000E+03   1.8239999E-15
   7.0640000E+03   1.9020000E-15
   7.0680000E+03   2.2480000E-15
   7.0720000E+03   1.9950000E-15
   7.0760000E+03   1.9350000E-15
   7.0800000E+03   1.8099999E-15
   7.0840000E+03   2.0930000E-15
   7.0880000E+03   2.4390000E-15
   7.0920000E+03   2.4560000E-15
   7.0960000E+03   2.1399999E-15
   7.1000000E+03   1.9060001E-15
   7.1040000E+03   2.0140000E-15
   7.1080000E+03   2.0780001E-15
   7.1120000E+03   1.8770000E-15
   7.1160000E+03   2.2990001E-15
   7.1200000E+03   2.3650001E-15
   7.1240000E+03   2.1619999E-15
   7.1280000E+03   2.3650001E-15
   7.1320000E+03   3.0750000E-15
   7.1360000E+03   3.8180002E-15
   7.1400000E+03   3.2589999E-15
   7.1440000E+03   2.7960001E-15
   7.1480000E+03   2.4720000E-15
   7.1520000E+03   2.1539999E-15
   7.1560000E+03   2.3380000E-15
   7.1600000E+03   2.5230001E-15
   7.1640000E+03   2.5420001E-15
   7.1680000E+03   2.1000001E-15
   7.1720000E+03   1.9860000E-15
   7.1760000E+03   1.5790000E-15
   7.1800000E+03   1.8260000E-15
   7.1840000E+03   2.1919999E-15
   7.1880000E+03   2.1040000E-15
   7.1920000E+03   1.7870000E-15
   7.1960000E+03   1.8260000E-15
   7.2000000E+03   2.0829999E-15
   7.2040000E+03   2.4300001E-15
   7.2080000E+03   2.5920000E-15
   7.2120000E+03   2.1809999E-15
   7.2160000E+03   2.1500000E-15
   7.2200000E+03   1.6009999E-15
   7.2240000E+03   1.6100000E-15
   7.2280000E+03   1.9450000E-15
   7.2320000E+03   1.0990000E-15
   7.2360000E+03   1.6670000E-15
   7.2400000E+03   2.0039999E-15
   7.2440000E+03   1.8070000E-15
   7.2480000E+03   1.5880000E-15
   7.2520000E+03   1.7660000E-15
   7.2560000E+03   1.7920001E-15
   7.2600000E+03   1.2790000E-15
   7.2640000E+03   1.6680000E-15
   7.2680000E+03   1.5130000E-15
   7.2720000E+03   1.2450000E-15
   7.2760000E+03   1.9610001E-15
   7.2800000E+03   2.3390000E-15
   7.2840000E+03   1.8889999E-15
   7.2880000E+03   1.8589999E-15
   7.2920000E+03   1.9260000E-15
   7.2960000E+03   1.6980000E-15
   7.3000000E+03   2.1090000E-15
   7.3040000E+03   2.2870000E-15
   7.3080000E+03   2.3259999E-15
   7.3120000E+03   2.0609999E-15
   7.3160000E+03   2.3430001E-15
   7.3200000E+03   2.4800000E-15
   7.3240000E+03   2.4150000E-15
   7.3280000E+03   2.7740001E-15
   7.3320000E+03   2.6220000E-15
   7.3360000E+03   1.8110001E-15
   7.3400000E+03   2.0609999E-15
   7.3440000E+03   2.4340000E-15
   7.3480000E+03   2.4390000E-15
   7.3520000E+03   1.9210000E-15
   7.3560000E+03   2.3180001E-15
   7.3600000E+03   2.9600000E-15
   7.3640000E+03   3.8499998E-15
   7.3680000E+03   4.3679998E-15
   7.3720000E+03   3.1020000E-15
   7.3760000E+03   1.8990000E-15
   7.3800000E+03   1.5060000E-15
   7.3840000E+03   1.5580000E-15
   7.3880000E+03   1.9660001E-15
   7.3920000E+03   1.5960000E-15
   7.3960000E+03   2.3360000E-15
   7.4000000E+03   3.0850001E-15
   7.4040000E+03   3.0690001E-15
   7.4080000E+03   3.6210002E-15
   7.4120000E+03   2.7269999E-15
   7.4160000E+03   2.8439999E-15
   7.4200000E+03   3.0189999E-15
   7.4240000E+03   3.0290000E-15
   7.4280000E+03   3.2300001E-15
   7.4320000E+03   2.8340001E-15
   7.4360000E+03   2.3760001E-15
   7.4400000E+03   1.6270000E-15
   7.4440000E+03   1.7030000E-15
   7.4480000E+03   1.4610000E-15
   7.4520000E+03   1.8600001E-15
   7.4560000E+03   3.1100001E-15
   7.4600000E+03   3.1740000E-15
   7.4640000E+03   3.0379999E-15
   7.4680000E+03   2.1360000E-15
   7.4720000E+03   1.4640000E-15
   7.4760000E+03   1.2680000E-15
   7.4800000E+03   1.4700000E-15
   7.4840000E+03   2.4450000E-15
   7.4880000E+03   2.2260000E-15
   7.4920000E+03   2.5000000E-15
   7.4960000E+03   2.4230000E-15
   7.5000000E+03   1.5850000E-15
   7.5040000E+03   1.4580000E-15
   7.5080000E+03   2.1890000E-15
   7.5120000E+03   2.6960000E-15
   7.5160000E+03   1.5820000E-15
   7.5200000E+03   2.9390000E-15
   7.5240000E+03   3.0269999E-15
   7.5280000E+03   2.6710000E-15
   7.5320000E+03   1.7950000E-15
   7.5360000E+03   1.3920000E-15
   7.5400000E+03   1.2070000E-15
   7.5440000E+03   2.5940001E-15
   7.5480000E+03   1.4510000E-15
   7.5520000E+03   2.0199999E-15
   7.5560000E+03   2.6090000E-15
   7.5600000E+03   6.2690001E-15
   7.5640000E+03   7.6779996E-15
   7.5680000E+03   3.6240000E-15
   7.5720000E+03   2.7670000E-15
   7.5760000E+03   2.8769999E-15
   7.5800000E+03   2.9900000E-15
   7.5840000E+03   3.1890001E-15
   7.5880000E+03   2.0009999E-15
   7.5920000E+03   1.4130000E-15
   7.5960000E+03   8.6890000E-16
   7.6000000E+03   1.5300000E-15
   7.6040000E+03   5.2899999E-15
   7.6080000E+03   6.2499999E-15
   7.6120000E+03   5.3350002E-15
   7.6160000E+03   2.9190001E-15
   7.6200000E+03   1.6880000E-15
   7.6240000E+03   1.9760000E-15
   7.6280000E+03   2.2370000E-15
   7.6320000E+03   1.3920000E-15
   7.6360000E+03   2.6390000E-15
   7.6400000E+03   3.7550000E-15
   7.6440000E+03   6.7620000E-15
   7.6480000E+03   7.0899999E-15
   7.6520000E+03   4.6640002E-15
   7.6560000E+03   3.1549999E-15
   7.6600000E+03   2.4880000E-15
   7.6640000E+03   2.4847146E-15
   7.6680000E+03   2.4814292E-15
   7.6720000E+03   2.4781438E-15
   7.6760000E+03   2.4748842E-15
   7.6800000E+03   2.4715987E-15
   7.6840000E+03   2.4384109E-15
   7.6880000E+03   2.4052233E-15
   7.6920000E+03   2.3720099E-15
   7.6960000E+03   2.3388223E-15
   7.7000000E+03   2.3056345E-15
   7.7040000E+03   2.3246281E-15
   7.7080000E+03   2.3436218E-15
   7.7120000E+03   2.3626157E-15
   7.7160000E+03   2.3816093E-15
   7.7200000E+03   2.4006032E-15
   7.7240000E+03   2.4078157E-15
   7.7280000E+03   2.4150282E-15
   7.7320000E+03   2.4222150E-15
   7.7360000E+03   2.4294275E-15
   7.7400000E+03   2.4366144E-15
   7.7440000E+03   2.4400281E-15
   7.7480000E+03   2.4434417E-15
   7.7520000E+03   2.4468554E-15
   7.7560000E+03   2.4502435E-15
   7.7600000E+03   2.4536573E-15
   7.7640000E+03   2.4536573E-15
   7.7680000E+03   2.4536573E-15
   7.7720000E+03   2.4536317E-15
   7.7760000E+03   2.4536317E-15
   7.7800000E+03   2.4536061E-15
   7.7840000E+03   2.4547610E-15
   7.7880000E+03   2.4559161E-15
   7.7920000E+03   2.4570711E-15
   7.7960000E+03   2.4582004E-15
   7.8000000E+03   2.4593555E-15
   7.8040000E+03   2.4626151E-15
   7.8080000E+03   2.4658491E-15
   7.8120000E+03   2.4690833E-15
   7.8160000E+03   2.4723431E-15
   7.8200000E+03   2.4755770E-15
   7.8240000E+03   2.4758339E-15
   7.8280000E+03   2.4761162E-15
   7.8320000E+03   2.4763728E-15
   7.8360000E+03   2.4766551E-15
   7.8400000E+03   2.4769117E-15
   7.8440000E+03   2.4735494E-15
   7.8480000E+03   2.4701613E-15
   7.8520000E+03   2.4667990E-15
   7.8560000E+03   2.4634109E-15
   7.8600000E+03   2.4600484E-15
   7.8640000E+03   2.4569684E-15
   7.8680000E+03   2.4538883E-15
   7.8720000E+03   2.4508083E-15
   7.8760000E+03   2.4477281E-15
   7.8800000E+03   2.4446483E-15
   7.8840000E+03   2.4402846E-15
   7.8880000E+03   2.4359213E-15
   7.8920000E+03   2.4315578E-15
   7.8960000E+03   2.4271945E-15
   7.9000000E+03   2.4228310E-15
   7.9040000E+03   2.4159779E-15
   7.9080000E+03   2.4091504E-15
   7.9120000E+03   2.4022972E-15
   7.9160000E+03   2.3954439E-15
   7.9200000E+03   2.3885910E-15
   7.9240000E+03   2.3839196E-15
   7.9280000E+03   2.3792480E-15
   7.9320000E+03   2.3745766E-15
   7.9360000E+03   2.3699052E-15
   7.9400000E+03   2.3652338E-15
   7.9440000E+03   2.3661834E-15
   7.9480000E+03   2.3671587E-15
   7.9520000E+03   2.3681341E-15
   7.9560000E+03   2.3691094E-15
   7.9600000E+03   2.3700848E-15
   7.9640000E+03   2.3764761E-15
   7.9680000E+03   2.3828672E-15
   7.9720000E+03   2.3892582E-15
   7.9760000E+03   2.3956495E-15
   7.9800000E+03   2.4020406E-15
   7.9840000E+03   2.4047613E-15
   7.9880000E+03   2.4074821E-15
   7.9920000E+03   2.4101772E-15
   7.9960000E+03   2.4128977E-15
   8.0000000E+03   2.4155929E-15
   8.0040000E+03   2.4193146E-15
   8.0080000E+03   2.4230362E-15
   8.0120000E+03   2.4267325E-15
   8.0160000E+03   2.4304541E-15
   8.0200000E+03   2.4341503E-15
   8.0240000E+03   2.4380516E-15
   8.0280000E+03   2.4419274E-15
   8.0320000E+03   2.4458288E-15
   8.0360000E+03   2.4497046E-15
   8.0400000E+03   2.4536061E-15
   8.0440000E+03   2.4610752E-15
   8.0480000E+03   2.4685441E-15
   8.0520000E+03   2.4760135E-15
   8.0560000E+03   2.4834826E-15
   8.0600000E+03   2.4909261E-15
   8.0640000E+03   2.4955204E-15
   8.0680000E+03   2.5000893E-15
   8.0720000E+03   2.5046580E-15
   8.0760000E+03   2.5092267E-15
   8.0800000E+03   2.5138214E-15
   8.0840000E+03   2.5116138E-15
   8.0880000E+03   2.5094065E-15
   8.0920000E+03   2.5072247E-15
   8.0960000E+03   2.5050174E-15
   8.1000000E+03   2.5028100E-15
   8.1040000E+03   2.5019373E-15
   8.1080000E+03   2.5010391E-15
   8.1120000E+03   2.5001664E-15
   8.1160000E+03   2.4992937E-15
   8.1200000E+03   2.4984209E-15
   8.1240000E+03   2.5158234E-15
   8.1280000E+03   2.5332257E-15
   8.1320000E+03   2.5506538E-15
   8.1360000E+03   2.5680561E-15
   8.1400000E+03   2.5854586E-15
   8.1440000E+03   2.5912593E-15
   8.1480000E+03   2.5970600E-15
   8.1520000E+03   2.6028609E-15
   8.1560000E+03   2.6086360E-15
   8.1600000E+03   2.6144366E-15
   8.1640000E+03   2.6058638E-15
   8.1680000E+03   2.5972910E-15
   8.1720000E+03   2.5886924E-15
   8.1760000E+03   2.5801197E-15
   8.1800000E+03   2.5715469E-15
   8.1840000E+03   2.5678507E-15
   8.1880000E+03   2.5641805E-15
   8.1920000E+03   2.5605099E-15
   8.1960000E+03   2.5568138E-15
   8.2000000E+03   2.5531434E-15
   8.2040000E+03   2.5454689E-15
   8.2080000E+03   2.5377946E-15
   8.2120000E+03   2.5301200E-15
   8.2160000E+03   2.5224711E-15
   8.2200000E+03   2.5147966E-15
   8.2240000E+03   2.5113316E-15
   8.2280000E+03   2.5078664E-15
   8.2320000E+03   2.5044014E-15
   8.2360000E+03   2.5009105E-15
   8.2400000E+03   2.4974455E-15
   8.2440000E+03   2.5041703E-15
   8.2480000E+03   2.5108953E-15
   8.2520000E+03   2.5175943E-15
   8.2560000E+03   2.5243191E-15
   8.2600000E+03   2.5310183E-15
   8.2640000E+03   2.5337902E-15
   8.2680000E+03   2.5365623E-15
   8.2720000E+03   2.5393345E-15
   8.2760000E+03   2.5421064E-15
   8.2800000E+03   2.5448529E-15
   8.2840000E+03   2.5266036E-15
   8.2880000E+03   2.5083540E-15
   8.2920000E+03   2.4900791E-15
   8.2960000E+03   2.4718295E-15
   8.3000000E+03   2.4535802E-15
   8.3040000E+03   2.4459828E-15
   8.3080000E+03   2.4384109E-15
   8.3120000E+03   2.4308391E-15
   8.3160000E+03   2.4232672E-15
   8.3200000E+03   2.4156956E-15
   8.3240000E+03   2.4059677E-15
   8.3280000E+03   2.3962653E-15
   8.3320000E+03   2.3865376E-15
   8.3360000E+03   2.3768096E-15
   8.3400000E+03   2.3670819E-15
   8.3440000E+03   2.3618970E-15
   8.3480000E+03   2.3567123E-15
   8.3520000E+03   2.3515274E-15
   8.3560000E+03   2.3463168E-15
   8.3600000E+03   2.3411322E-15
   8.3640000E+03   2.3457779E-15
   8.3680000E+03   2.3503981E-15
   8.3720000E+03   2.3550438E-15
   8.3760000E+03   2.3596640E-15
   8.3800000E+03   2.3643097E-15
   8.3840000E+03   2.3666198E-15
   8.3880000E+03   2.3689299E-15
   8.3920000E+03   2.3712656E-15
   8.3960000E+03   2.3735754E-15
   8.4000000E+03   2.3759113E-15
   8.4040000E+03   2.3797869E-15
   8.4080000E+03   2.3836627E-15
   8.4120000E+03   2.3875385E-15
   8.4160000E+03   2.3914144E-15
   8.4200000E+03   2.3953158E-15
   8.4240000E+03   2.3894380E-15
   8.4280000E+03   2.3835602E-15
   8.4320000E+03   2.3776823E-15
   8.4360000E+03   2.3718303E-15
   8.4400000E+03   2.3659523E-15
   8.4440000E+03   2.3501670E-15
   8.4480000E+03   2.3343561E-15
   8.4520000E+03   2.3185708E-15
   8.4560000E+03   2.3027855E-15
   8.4600000E+03   2.2869743E-15
   8.4640000E+03   2.2844076E-15
   8.4680000E+03   2.2818409E-15
   8.4720000E+03   2.2792744E-15
   8.4760000E+03   2.2767075E-15
   8.4800000E+03   2.2741407E-15
   8.4840000E+03   2.2698543E-15
   8.4880000E+03   2.2655423E-15
   8.4920000E+03   2.2612559E-15
   8.4960000E+03   2.2569439E-15
   8.5000000E+03   2.2526574E-15
   8.5040000E+03   2.2495003E-15
   8.5080000E+03   2.2463689E-15
   8.5120000E+03   2.2432120E-15
   8.5160000E+03   2.2400803E-15
   8.5200000E+03   2.2369234E-15
   8.5240000E+03   2.2279397E-15
   8.5280000E+03   2.2189563E-15
   8.5320000E+03   2.2099729E-15
   8.5360000E+03   2.2009891E-15
   8.5400000E+03   2.1920056E-15
   8.5440000E+03   2.1839720E-15
   8.5480000E+03   2.1759381E-15
   8.5520000E+03   2.1679042E-15
   8.5560000E+03   2.1598703E-15
   8.5600000E+03   2.1518366E-15
   8.5640000E+03   2.1722677E-15
   8.5680000E+03   2.1926731E-15
   8.5720000E+03   2.2130786E-15
   8.5760000E+03   2.2335096E-15
   8.5800000E+03   2.2539151E-15
   8.5840000E+03   2.2652856E-15
   8.5880000E+03   2.2766562E-15
   8.5920000E+03   2.2880012E-15
   8.5960000E+03   2.2993717E-15
   8.6000000E+03   2.3107423E-15
   8.6040000E+03   2.3159014E-15
   8.6080000E+03   2.3210861E-15
   8.6120000E+03   2.3262710E-15
   8.6160000E+03   2.3314556E-15
   8.6200000E+03   2.3366403E-15
   8.6240000E+03   2.3443407E-15
   8.6280000E+03   2.3520665E-15
   8.6320000E+03   2.3597667E-15
   8.6360000E+03   2.3674668E-15
   8.6400000E+03   2.3751670E-15
   8.6440000E+03   2.3603056E-15
   8.6480000E+03   2.3454700E-15
   8.6520000E+03   2.3306086E-15
   8.6560000E+03   2.3157474E-15
   8.6600000E+03   2.3009118E-15
   8.6640000E+03   2.2885657E-15
   8.6680000E+03   2.2762200E-15
   8.6720000E+03   2.2638739E-15
   8.6760000E+03   2.2515279E-15
   8.6800000E+03   2.2391820E-15
   8.6840000E+03   2.2544798E-15
   8.6880000E+03   2.2697775E-15
   8.6920000E+03   2.2851007E-15
   8.6960000E+03   2.3003983E-15
   8.7000000E+03   2.3156960E-15
   8.7040000E+03   2.3343817E-15
   8.7080000E+03   2.3530419E-15
   8.7120000E+03   2.3717018E-15
   8.7160000E+03   2.3903619E-15
   8.7200000E+03   2.4090477E-15
   8.7240000E+03   2.4156185E-15
   8.7280000E+03   2.4221894E-15
   8.7320000E+03   2.4287603E-15
   8.7360000E+03   2.4353309E-15
   8.7400000E+03   2.4419018E-15
   8.7440000E+03   2.4405670E-15
   8.7480000E+03   2.4392067E-15
   8.7520000E+03   2.4378720E-15
   8.7560000E+03   2.4365117E-15
   8.7600000E+03   2.4351769E-15
   8.7640000E+03   2.4398740E-15
   8.7680000E+03   2.4445456E-15
   8.7720000E+03   2.4492426E-15
   8.7760000E+03   2.4539396E-15
   8.7800000E+03   2.4586366E-15
   8.7840000E+03   2.4634365E-15
   8.7880000E+03   2.4682362E-15
   8.7920000E+03   2.4730361E-15
   8.7960000E+03   2.4778359E-15
   8.8000000E+03   2.4826356E-15
   8.8040000E+03   2.4802228E-15
   8.8080000E+03   2.4777844E-15
   8.8120000E+03   2.4753718E-15
   8.8160000E+03   2.4729334E-15
   8.8200000E+03   2.4705207E-15
   8.8240000E+03   2.4740884E-15
   8.8280000E+03   2.4776305E-15
   8.8320000E+03   2.4811725E-15
   8.8360000E+03   2.4847402E-15
   8.8400000E+03   2.4882823E-15
   8.8440000E+03   2.4851767E-15
   8.8480000E+03   2.4820708E-15
   8.8520000E+03   2.4789395E-15
   8.8560000E+03   2.4758339E-15
   8.8600000E+03   2.4727280E-15
   8.8640000E+03   2.4516039E-15
   8.8680000E+03   2.4305053E-15
   8.8720000E+03   2.4094070E-15
   8.8760000E+03   2.3882829E-15
   8.8800000E+03   2.3671843E-15
   8.8840000E+03   2.3621280E-15
   8.8880000E+03   2.3570716E-15
   8.8920000E+03   2.3519894E-15
   8.8960000E+03   2.3469331E-15
   8.9000000E+03   2.3418767E-15
   8.9040000E+03   2.3458037E-15
   8.9080000E+03   2.3497308E-15
   8.9120000E+03   2.3536579E-15
   8.9160000E+03   2.3575593E-15
   8.9200000E+03   2.3614864E-15
   8.9240000E+03   2.3652338E-15
   8.9280000E+03   2.3689811E-15
   8.9320000E+03   2.3727542E-15
   8.9360000E+03   2.3765017E-15
   8.9400000E+03   2.3802490E-15
   8.9440000E+03   2.3724976E-15
   8.9480000E+03   2.3647718E-15
   8.9520000E+03   2.3570202E-15
   8.9560000E+03   2.3492687E-15
   8.9600000E+03   2.3415430E-15
   8.9640000E+03   2.3525542E-15
   8.9680000E+03   2.3635910E-15
   8.9720000E+03   2.3746022E-15
   8.9760000E+03   2.3856391E-15
   8.9800000E+03   2.3966505E-15
   8.9840000E+03   2.3894122E-15
   8.9880000E+03   2.3821485E-15
   8.9920000E+03   2.3748847E-15
   8.9960000E+03   2.3676464E-15
   9.0000000E+03   2.3603827E-15
   9.0040000E+03   2.3474976E-15
   9.0080000E+03   2.3345871E-15
   9.0120000E+03   2.3216764E-15
   9.0160000E+03   2.3087916E-15
   9.0200000E+03   2.2958809E-15
   9.0240000E+03   2.3217021E-15
   9.0280000E+03   2.3475234E-15
   9.0320000E+03   2.3733446E-15
   9.0360000E+03   2.3991914E-15
   9.0400000E+03   2.4250128E-15
   9.0440000E+03   2.4556851E-15
   9.0480000E+03   2.4863831E-15
   9.0520000E+03   2.5170810E-15
   9.0560000E+03   2.5477790E-15
   9.0600000E+03   2.5784769E-15
   9.0640000E+03   2.5652327E-15
   9.0680000E+03   2.5519885E-15
   9.0720000E+03   2.5387441E-15
   9.0760000E+03   2.5254999E-15
   9.0800000E+03   2.5122555E-15
   9.0840000E+03   2.4987546E-15
   9.0880000E+03   2.4852535E-15
   9.0920000E+03   2.4717527E-15
   9.0960000E+03   2.4582518E-15
   9.1000000E+03   2.4447251E-15
   9.1040000E+03   2.4536573E-15
   9.1080000E+03   2.4625895E-15
   9.1120000E+03   2.4715216E-15
   9.1160000E+03   2.4804538E-15
   9.1200000E+03   2.4893604E-15
   9.1240000E+03   2.4890269E-15
   9.1280000E+03   2.4886675E-15
   9.1320000E+03   2.4883338E-15
   9.1360000E+03   2.4879744E-15
   9.1400000E+03   2.4876151E-15
   9.1440000E+03   2.4789652E-15
   9.1480000E+03   2.4702896E-15
   9.1520000E+03   2.4616397E-15
   9.1560000E+03   2.4529901E-15
   9.1600000E+03   2.4443145E-15
   9.1640000E+03   2.4354848E-15
   9.1680000E+03   2.4266298E-15
   9.1720000E+03   2.4178003E-15
   9.1760000E+03   2.4089452E-15
   9.1800000E+03   2.4000899E-15
   9.1840000E+03   2.4072253E-15
   9.1880000E+03   2.4143607E-15
   9.1920000E+03   2.4214963E-15
   9.1960000E+03   2.4286317E-15
   9.2000000E+03   2.4357671E-15
   9.2040000E+03   2.4376410E-15
   9.2080000E+03   2.4395404E-15
   9.2120000E+03   2.4414141E-15
   9.2160000E+03   2.4432877E-15
   9.2200000E+03   2.4451613E-15
   9.2240000E+03   2.4267325E-15
   9.2280000E+03   2.4083033E-15
   9.2320000E+03   2.3898742E-15
   9.2360000E+03   2.3714451E-15
   9.2400000E+03   2.3530162E-15
   9.2440000E+03   2.3498077E-15
   9.2480000E+03   2.3465737E-15
   9.2520000E+03   2.3433654E-15
   9.2560000E+03   2.3401312E-15
   9.2600000E+03   2.3369228E-15
   9.2640000E+03   2.3271692E-15
   9.2680000E+03   2.3173900E-15
   9.2720000E+03   2.3076364E-15
   9.2760000E+03   2.2978574E-15
   9.2800000E+03   2.2881037E-15
   9.2840000E+03   2.2992690E-15
   9.2880000E+03   2.3104086E-15
   9.2920000E+03   2.3215737E-15
   9.2960000E+03   2.3327391E-15
   9.3000000E+03   2.3438787E-15
   9.3040000E+03   2.3180831E-15
   9.3080000E+03   2.2922876E-15
   9.3120000E+03   2.2664662E-15
   9.3160000E+03   2.2406707E-15
   9.3200000E+03   2.2148751E-15
   9.3240000E+03   2.1952911E-15
   9.3280000E+03   2.1757327E-15
   9.3320000E+03   2.1561742E-15
   9.3360000E+03   2.1365902E-15
   9.3400000E+03   2.1170318E-15
   9.3440000E+03   2.1387720E-15
   9.3480000E+03   2.1604863E-15
   9.3520000E+03   2.1822008E-15
   9.3560000E+03   2.2039410E-15
   9.3600000E+03   2.2256555E-15
   9.3640000E+03   2.1979349E-15
   9.3680000E+03   2.1702399E-15
   9.3720000E+03   2.1425194E-15
   9.3760000E+03   2.1147988E-15
   9.3800000E+03   2.0870782E-15
   9.3840000E+03   2.1160308E-15
   9.3880000E+03   2.1449578E-15
   9.3920000E+03   2.1738846E-15
   9.3960000E+03   2.2028373E-15
   9.4000000E+03   2.2317641E-15
   9.4040000E+03   2.2582271E-15
   9.4080000E+03   2.2846645E-15
   9.4120000E+03   2.3111273E-15
   9.4160000E+03   2.3375644E-15
   9.4200000E+03   2.3640275E-15
   9.4240000E+03   2.3122566E-15
   9.4280000E+03   2.2605116E-15
   9.4320000E+03   2.2087407E-15
   9.4360000E+03   2.1569700E-15
   9.4400000E+03   2.1052250E-15
   9.4440000E+03   2.0945988E-15
   9.4480000E+03   2.0839723E-15
   9.4520000E+03   2.0733463E-15
   9.4560000E+03   2.0627200E-15
   9.4600000E+03   2.0520938E-15
   9.4640000E+03   2.0857947E-15
   9.4680000E+03   2.1194702E-15
   9.4720000E+03   2.1531713E-15
   9.4760000E+03   2.1868722E-15
   9.4800000E+03   2.2205477E-15
   9.4840000E+03   2.2256811E-15
   9.4880000E+03   2.2308146E-15
   9.4920000E+03   2.2359736E-15
   9.4960000E+03   2.2411071E-15
   9.5000000E+03   2.2462405E-15
   9.5040000E+03   2.2445208E-15
   9.5080000E+03   2.2428268E-15
   9.5120000E+03   2.2411327E-15
   9.5160000E+03   2.2394386E-15
   9.5200000E+03   2.2377446E-15
   9.5240000E+03   2.2561224E-15
   9.5280000E+03   2.2744745E-15
   9.5320000E+03   2.2928521E-15
   9.5360000E+03   2.3112300E-15
   9.5400000E+03   2.3296076E-15
   9.5440000E+03   2.3347411E-15
   9.5480000E+03   2.3398489E-15
   9.5520000E+03   2.3449823E-15
   9.5560000E+03   2.3501158E-15
   9.5600000E+03   2.3552492E-15
   9.5640000E+03   2.3536835E-15
   9.5680000E+03   2.3521177E-15
   9.5720000E+03   2.3505264E-15
   9.5760000E+03   2.3489606E-15
   9.5800000E+03   2.3473951E-15
   9.5840000E+03   2.3451363E-15
   9.5880000E+03   2.3428777E-15
   9.5920000E+03   2.3405932E-15
   9.5960000E+03   2.3383344E-15
   9.6000000E+03   2.3360758E-15
   9.6040000E+03   2.3175954E-15
   9.6080000E+03   2.2990895E-15
   9.6120000E+03   2.2806089E-15
   9.6160000E+03   2.2621285E-15
   9.6200000E+03   2.2436226E-15
   9.6240000E+03   2.2631554E-15
   9.6280000E+03   2.2826879E-15
   9.6320000E+03   2.3022207E-15
   9.6360000E+03   2.3217535E-15
   9.6400000E+03   2.3412605E-15
   9.6440000E+03   2.3252698E-15
   9.6480000E+03   2.3092534E-15
   9.6520000E+03   2.2932627E-15
   9.6560000E+03   2.2772466E-15
   9.6600000E+03   2.2612559E-15
   9.6640000E+03   2.2757836E-15
   9.6680000E+03   2.2903112E-15
   9.6720000E+03   2.3048389E-15
   9.6760000E+03   2.3193666E-15
   9.6800000E+03   2.3338940E-15
   9.6840000E+03   2.3426466E-15
   9.6880000E+03   2.3513990E-15
   9.6920000E+03   2.3601516E-15
   9.6960000E+03   2.3689042E-15
   9.7000000E+03   2.3776566E-15
   9.7040000E+03   2.3648486E-15
   9.7080000E+03   2.3520153E-15
   9.7120000E+03   2.3392073E-15
   9.7160000E+03   2.3263734E-15
   9.7200000E+03   2.3135657E-15
   9.7240000E+03   2.3056601E-15
   9.7280000E+03   2.2977804E-15
   9.7320000E+03   2.2899004E-15
   9.7360000E+03   2.2819949E-15
   9.7400000E+03   2.2741151E-15
   9.7440000E+03   2.2715740E-15
   9.7480000E+03   2.2690329E-15
   9.7520000E+03   2.2664920E-15
   9.7560000E+03   2.2639509E-15
   9.7600000E+03   2.2614098E-15
   9.7640000E+03   2.2628472E-15
   9.7680000E+03   2.2642847E-15
   9.7720000E+03   2.2657221E-15
   9.7760000E+03   2.2671593E-15
   9.7800000E+03   2.2685967E-15
   9.7840000E+03   2.2658760E-15
   9.7880000E+03   2.2631808E-15
   9.7920000E+03   2.2604603E-15
   9.7960000E+03   2.2577653E-15
   9.8000000E+03   2.2550444E-15
   9.8040000E+03   2.2608451E-15
   9.8080000E+03   2.2666460E-15
   9.8120000E+03   2.2724210E-15
   9.8160000E+03   2.2782220E-15
   9.8200000E+03   2.2840226E-15
   9.8240000E+03   2.2860248E-15
   9.8280000E+03   2.2880268E-15
   9.8320000E+03   2.2900287E-15
   9.8360000E+03   2.2920307E-15
   9.8400000E+03   2.2940329E-15
   9.8440000E+03   2.2942895E-15
   9.8480000E+03   2.2945720E-15
   9.8520000E+03   2.2948287E-15
   9.8560000E+03   2.2950853E-15
   9.8600000E+03   2.2953420E-15
   9.8640000E+03   2.3003983E-15
   9.8680000E+03   2.3054547E-15
   9.8720000E+03   2.3104857E-15
   9.8760000E+03   2.3155420E-15
   9.8800000E+03   2.3205986E-15
   9.8840000E+03   2.3190583E-15
   9.8880000E+03   2.3175184E-15
   9.8920000E+03   2.3159784E-15
   9.8960000E+03   2.3144383E-15
   9.9000000E+03   2.3129240E-15
   9.9040000E+03   2.3032475E-15
   9.9080000E+03   2.2935710E-15
   9.9120000E+03   2.2839199E-15
   9.9160000E+03   2.2742434E-15
   9.9200000E+03   2.2645926E-15
   9.9240000E+03   2.2676470E-15
   9.9280000E+03   2.2707270E-15
   9.9320000E+03   2.2738072E-15
   9.9360000E+03   2.2768616E-15
   9.9400000E+03   2.2799416E-15
   9.9440000E+03   2.2853061E-15
   9.9480000E+03   2.2906450E-15
   9.9520000E+03   2.2960092E-15
   9.9560000E+03   2.3013737E-15
   9.9600000E+03   2.3067382E-15
   9.9640000E+03   2.3085091E-15
   9.9680000E+03   2.3103059E-15
   9.9720000E+03   2.3121026E-15
   9.9760000E+03   2.3138736E-15
   9.9800000E+03   2.3156703E-15
   9.9840000E+03   2.3178008E-15
   9.9880000E+03   2.3199568E-15
   9.9920000E+03   2.3220873E-15
   9.9960000E+03   2.3242175E-15
   1.0000000E+04   2.3263480E-15
   1.0004000E+04   2.3220358E-15
   1.0008000E+04   2.3176981E-15
   1.0012000E+04   2.3133603E-15
   1.0016000E+04   2.3090226E-15
   1.0020000E+04   2.3047106E-15
   1.0024000E+04   2.3085862E-15
   1.0028000E+04   2.3124876E-15
   1.0032000E+04   2.3163890E-15
   1.0036000E+04   2.3202905E-15
   1.0040000E+04   2.3241919E-15
   1.0044000E+04   2.3140790E-15
   1.0048000E+04   2.3039404E-15
   1.0052000E+04   2.2938275E-15
   1.0056000E+04   2.2837148E-15
   1.0060000E+04   2.2735762E-15
   1.0064000E+04   2.2750134E-15
   1.0068000E+04   2.2764252E-15
   1.0072000E+04   2.2778626E-15
   1.0076000E+04   2.2792744E-15
   1.0080000E+04   2.2807116E-15
   1.0084000E+04   2.2896694E-15
   1.0088000E+04   2.2986274E-15
   1.0092000E+04   2.3075596E-15
   1.0096000E+04   2.3165174E-15
   1.0100000E+04   2.3254752E-15
   1.0104000E+04   2.3262453E-15
   1.0108000E+04   2.3270409E-15
   1.0112000E+04   2.3278111E-15
   1.0116000E+04   2.3285810E-15
   1.0120000E+04   2.3293766E-15
   1.0124000E+04   2.3219075E-15
   1.0128000E+04   2.3144383E-15
   1.0132000E+04   2.3069948E-15
   1.0136000E+04   2.2995257E-15
   1.0140000E+04   2.2920565E-15
   1.0144000E+04   2.2881037E-15
   1.0148000E+04   2.2841510E-15
   1.0152000E+04   2.2801983E-15
   1.0156000E+04   2.2762200E-15
   1.0160000E+04   2.2722671E-15
   1.0164000E+04   2.2717538E-15
   1.0168000E+04   2.2712405E-15
   1.0172000E+04   2.2707270E-15
   1.0176000E+04   2.2702137E-15
   1.0180000E+04   2.2697260E-15
   1.0184000E+04   2.2695464E-15
   1.0188000E+04   2.2693669E-15
   1.0192000E+04   2.2691871E-15
   1.0196000E+04   2.2690329E-15
   1.0200000E+04   2.2688533E-15
   1.0204000E+04   2.2684940E-15
   1.0208000E+04   2.2681603E-15
   1.0212000E+04   2.2678009E-15
   1.0216000E+04   2.2674418E-15
   1.0220000E+04   2.2671080E-15
   1.0224000E+04   2.2694181E-15
   1.0228000E+04   2.2717538E-15
   1.0232000E+04   2.2740639E-15
   1.0236000E+04   2.2763996E-15
   1.0240000E+04   2.2787096E-15
   1.0244000E+04   2.2763737E-15
   1.0248000E+04   2.2740380E-15
   1.0252000E+04   2.2716767E-15
   1.0256000E+04   2.2693410E-15
   1.0260000E+04   2.2670053E-15
   1.0264000E+04   2.2662352E-15
   1.0268000E+04   2.2654652E-15
   1.0272000E+04   2.2646953E-15
   1.0276000E+04   2.2639253E-15
   1.0280000E+04   2.2631554E-15
   1.0284000E+04   2.2629756E-15
   1.0288000E+04   2.2628216E-15
   1.0292000E+04   2.2626675E-15
   1.0296000E+04   2.2624879E-15
   1.0300000E+04   2.2623339E-15
   1.0304000E+04   2.2597416E-15
   1.0308000E+04   2.2571749E-15
   1.0312000E+04   2.2545823E-15
   1.0316000E+04   2.2519900E-15
   1.0320000E+04   2.2493976E-15
   1.0324000E+04   2.2465999E-15
   1.0328000E+04   2.2438021E-15
   1.0332000E+04   2.2410044E-15
   1.0336000E+04   2.2382066E-15
   1.0340000E+04   2.2354089E-15
   1.0344000E+04   2.2345877E-15
   1.0348000E+04   2.2337663E-15
   1.0352000E+04   2.2329707E-15
   1.0356000E+04   2.2321493E-15
   1.0360000E+04   2.2313279E-15
   1.0364000E+04   2.2353576E-15
   1.0368000E+04   2.2393618E-15
   1.0372000E+04   2.2433915E-15
   1.0376000E+04   2.2473957E-15
   1.0380000E+04   2.2514254E-15
   1.0384000E+04   2.2464201E-15
   1.0388000E+04   2.2414406E-15
   1.0392000E+04   2.2364613E-15
   1.0396000E+04   2.2314818E-15
   1.0400000E+04   2.2264767E-15
   1.0404000E+04   2.2325343E-15
   1.0408000E+04   2.2385660E-15
   1.0412000E+04   2.2446235E-15
   1.0416000E+04   2.2506553E-15
   1.0420000E+04   2.2567128E-15
   1.0424000E+04   2.2586121E-15
   1.0428000E+04   2.2605116E-15
   1.0432000E+04   2.2624108E-15
   1.0436000E+04   2.2643103E-15
   1.0440000E+04   2.2662098E-15
   1.0444000E+04   2.2647721E-15
   1.0448000E+04   2.2633349E-15
   1.0452000E+04   2.2618975E-15
   1.0456000E+04   2.2604603E-15
   1.0460000E+04   2.2590227E-15
   1.0464000E+04   2.2524777E-15
   1.0468000E+04   2.2459068E-15
   1.0472000E+04   2.2393362E-15
   1.0476000E+04   2.2327909E-15
   1.0480000E+04   2.2262203E-15
   1.0484000E+04   2.2242952E-15
   1.0488000E+04   2.2223445E-15
   1.0492000E+04   2.2203935E-15
   1.0496000E+04   2.2184430E-15
   1.0500000E+04   2.2165179E-15
   1.0504000E+04   2.2143362E-15
   1.0508000E+04   2.2121801E-15
   1.0512000E+04   2.2100242E-15
   1.0516000E+04   2.2078424E-15
   1.0520000E+04   2.2056863E-15
   1.0524000E+04   2.2003989E-15
   1.0528000E+04   2.1950859E-15
   1.0532000E+04   2.1897983E-15
   1.0536000E+04   2.1845109E-15
   1.0540000E+04   2.1792235E-15
   1.0544000E+04   2.1760920E-15
   1.0548000E+04   2.1729864E-15
   1.0552000E+04   2.1698549E-15
   1.0556000E+04   2.1667236E-15
   1.0560000E+04   2.1636178E-15
   1.0564000E+04   2.1642596E-15
   1.0568000E+04   2.1649012E-15
   1.0572000E+04   2.1655429E-15
   1.0576000E+04   2.1661845E-15
   1.0580000E+04   2.1668519E-15
   1.0584000E+04   2.1628734E-15
   1.0588000E+04   2.1589208E-15
   1.0592000E+04   2.1549422E-15
   1.0596000E+04   2.1509896E-15
   1.0600000E+04   2.1470367E-15
   1.0604000E+04   2.1472165E-15
   1.0608000E+04   2.1474219E-15
   1.0612000E+04   2.1476271E-15
   1.0616000E+04   2.1478068E-15
   1.0620000E+04   2.1480122E-15
   1.0624000E+04   2.1481918E-15
   1.0628000E+04   2.1483970E-15
   1.0632000E+04   2.1485768E-15
   1.0636000E+04   2.1487822E-15
   1.0640000E+04   2.1489618E-15
   1.0644000E+04   2.1491672E-15
   1.0648000E+04   2.1493726E-15
   1.0652000E+04   2.1495521E-15
   1.0656000E+04   2.1497575E-15
   1.0660000E+04   2.1499371E-15
   1.0664000E+04   2.1501425E-15
   1.0668000E+04   2.1503221E-15
   1.0672000E+04   2.1505275E-15
   1.0676000E+04   2.1507329E-15
   1.0680000E+04   2.1509125E-15
   1.0684000E+04   2.1511179E-15
   1.0688000E+04   2.1512977E-15
   1.0692000E+04   2.1515029E-15
   1.0696000E+04   2.1516824E-15
   1.0700000E+04   2.1518878E-15
   1.0704000E+04   2.1520676E-15
   1.0708000E+04   2.1522728E-15
   1.0712000E+04   2.1524782E-15
   1.0716000E+04   2.1526580E-15
   1.0720000E+04   2.1528632E-15
   1.0724000E+04   2.1530430E-15
   1.0728000E+04   2.1532482E-15
   1.0732000E+04   2.1534280E-15
   1.0736000E+04   2.1536334E-15
   1.0740000E+04   2.1538129E-15
   1.0744000E+04   2.1540181E-15
   1.0748000E+04   2.1542237E-15
   1.0752000E+04   2.1544033E-15
   1.0756000E+04   2.1546085E-15
   1.0760000E+04   2.1547883E-15
   1.0764000E+04   2.1549937E-15
   1.0768000E+04   2.1551733E-15
   1.0772000E+04   2.1553785E-15
   1.0776000E+04   2.1555841E-15
   1.0780000E+04   2.1557636E-15
   1.0784000E+04   2.1559688E-15
   1.0788000E+04   2.1561486E-15
   1.0792000E+04   2.1563540E-15
   1.0796000E+04   2.1565336E-15
   1.0800000E+04   2.1567390E-15
   1.0804000E+04   2.1548395E-15
   1.0808000E+04   2.1529403E-15
   1.0812000E+04   2.1510408E-15
   1.0816000E+04   2.1491415E-15
   1.0820000E+04   2.1472421E-15
   1.0824000E+04   2.1453426E-15
   1.0828000E+04   2.1434433E-15
   1.0832000E+04   2.1415182E-15
   1.0836000E+04   2.1396190E-15
   1.0840000E+04   2.1377195E-15
   1.0844000E+04   2.1358203E-15
   1.0848000E+04   2.1339208E-15
   1.0852000E+04   2.1320215E-15
   1.0856000E+04   2.1301221E-15
   1.0860000E+04   2.1282226E-15
   1.0864000E+04   2.1263233E-15
   1.0868000E+04   2.1244239E-15
   1.0872000E+04   2.1225246E-15
   1.0876000E+04   2.1206251E-15
   1.0880000E+04   2.1187259E-15
   1.0884000E+04   2.1168266E-15
   1.0888000E+04   2.1149269E-15
   1.0892000E+04   2.1130277E-15
   1.0896000E+04   2.1111284E-15
   1.0900000E+04   2.1092289E-15
   1.0904000E+04   2.1073297E-15
   1.0908000E+04   2.1054302E-15
   1.0912000E+04   2.1035051E-15
   1.0916000E+04   2.1016058E-15
   1.0920000E+04   2.0997066E-15
   1.0924000E+04   2.0978069E-15
   1.0928000E+04   2.0959076E-15
   1.0932000E+04   2.0940084E-15
   1.0936000E+04   2.0921089E-15
   1.0940000E+04   2.0902097E-15
   1.0944000E+04   2.0883102E-15
   1.0948000E+04   2.0864109E-15
   1.0952000E+04   2.0845114E-15
   1.0956000E+04   2.0826120E-15
   1.0960000E+04   2.0807127E-15
   1.0964000E+04   2.0788132E-15
   1.0968000E+04   2.0769140E-15
   1.0972000E+04   2.0750145E-15
   1.0976000E+04   2.0731153E-15
   1.0980000E+04   2.0712158E-15
   1.0984000E+04   2.0693163E-15
   1.0988000E+04   2.0674171E-15
   1.0992000E+04   2.0654920E-15
   1.0996000E+04   2.0635927E-15
   1.1000000E+04   2.0616932E-15
